* Measurement data measured by REW V5.31
* Source: Scarlett 2i4 USB, MICROPHONE, R, volume: no control. Timing signal peak level -28.9 dBFS, measurement signal peak level -22.0 dBFS
* Format: 512k Log Swept Sine, 1 sweep at -18.0 dBFS using an acoustic timing reference
* Dated: Apr 16, 2024 8:24:08 AM
* REW Settings:
*  C-weighting compensation: Off
*  Target level: 75.0 dB
* Note: ; Delay -0.0143 ms (-4.9 mm, -0.19 in) using estimated IR delay relative to Acoustic reference played from SPEAKER L with no timing offset
* Measurement: rug-p1-l
* Smoothing: 1/48 octave
* Frequency Step: 96 ppo
* Start Frequency: 10.093689 Hz
*
* Freq(Hz) SPL(dB) Phase(degrees)
10.093689 15.971 127.7399
10.166832 16.937 111.4914
10.240505 18.083 97.6731
10.314712 19.253 86.4657
10.389457 20.402 77.3777
10.464743 21.445 69.6024
10.540575 22.326 61.9221
10.616956 23.103 54.5944
10.693891 23.796 47.8983
10.771383 24.410 41.9106
10.849437 24.942 35.9570
10.928057 25.388 29.8283
11.007246 25.760 23.9039
11.087009 26.070 18.4727
11.167350 26.320 13.3525
11.248273 26.505 7.9880
11.329783 26.625 2.6780
11.411883 26.685 -2.2277
11.494578 26.685 -6.6221
11.577873 26.622 -11.0669
11.661771 26.499 -15.4081
11.746277 26.320 -19.3169
11.831395 26.081 -22.5269
11.917130 25.774 -25.3621
12.003487 25.427 -27.7876
12.090469 25.074 -29.6040
12.178081 24.717 -30.4892
12.266329 24.346 -30.3503
12.355216 24.026 -29.4290
12.444747 23.844 -28.0747
12.534926 23.842 -26.1379
12.625760 23.991 -23.5830
12.717251 24.258 -21.2620
12.809406 24.629 -19.9123
12.902228 25.126 -19.2291
12.995723 25.699 -19.1371
13.089895 26.256 -19.7950
13.184750 26.744 -21.3577
13.280292 27.185 -23.6894
13.376526 27.553 -26.3767
13.473458 27.813 -29.1696
13.571093 27.966 -32.5562
13.669434 28.001 -36.3448
13.768489 27.889 -39.9020
13.868261 27.618 -43.1363
13.968756 27.188 -46.7328
14.069979 26.528 -49.9299
14.171936 25.516 -51.6601
14.274632 24.031 -52.1832
14.378072 22.452 -50.2536
14.482261 21.375 -42.3973
14.587206 21.030 -23.1661
14.692910 21.372 5.3506
14.799381 22.476 24.6672
14.906624 24.437 32.6441
15.014643 26.859 35.1685
15.123446 29.076 34.3344
15.233036 30.785 31.3791
15.343421 32.176 27.5478
15.454606 33.363 23.2921
15.566596 34.390 18.4710
15.679398 35.245 13.1983
15.793018 35.962 7.9859
15.907460 36.562 2.6537
16.022732 37.038 -3.0231
16.138840 37.404 -8.4772
16.255788 37.667 -13.8710
16.373585 37.823 -19.4910
16.492234 37.878 -24.7458
16.611744 37.833 -29.8500
16.732119 37.685 -34.9693
16.853367 37.437 -39.5435
16.975494 37.086 -43.7855
17.098505 36.639 -47.6860
17.222408 36.100 -50.7604
17.347209 35.468 -53.0078
17.472914 34.796 -54.3687
17.599530 34.114 -54.4176
17.727063 33.458 -52.9169
17.855521 32.969 -50.4244
17.984909 32.709 -46.7296
18.115235 32.675 -42.5879
18.246506 32.886 -39.2803
18.378727 33.319 -36.7237
18.511907 33.832 -35.4156
18.646052 34.358 -35.4505
18.781169 34.871 -36.4093
18.917265 35.306 -38.0593
19.054347 35.661 -40.4270
19.192423 35.931 -42.9623
19.331499 36.109 -45.7319
19.471583 36.202 -48.5538
19.612682 36.218 -51.0586
19.754804 36.162 -53.4260
19.897956 36.057 -55.2477
20.042144 35.908 -56.5205
20.187378 35.757 -57.1508
20.333664 35.630 -56.9389
20.481010 35.567 -56.0054
20.629424 35.625 -54.4759
20.778913 35.817 -52.4408
20.929486 36.165 -50.5552
21.081150 36.666 -48.8197
21.233912 37.264 -47.8491
21.387782 37.938 -47.5955
21.542767 38.629 -48.1481
21.698874 39.299 -49.5188
21.856113 39.924 -51.4464
22.014492 40.474 -53.9253
22.174018 40.940 -56.7176
22.334700 41.308 -59.6394
22.496546 41.576 -62.6421
22.659566 41.743 -65.3262
22.823766 41.816 -67.7750
22.989157 41.815 -69.4884
23.155745 41.762 -70.5446
23.323542 41.715 -70.6144
23.492554 41.712 -69.7532
23.662790 41.835 -68.2082
23.834261 42.102 -66.1631
24.006973 42.527 -64.4187
24.180938 43.077 -63.0794
24.356163 43.679 -62.6841
24.532658 44.290 -63.0051
24.710431 44.845 -64.0340
24.889493 45.331 -65.4393
25.069853 45.729 -66.9648
25.251519 46.060 -68.3369
25.434502 46.345 -69.2985
25.618811 46.641 -69.7963
25.804456 46.990 -69.7231
25.991445 47.447 -69.5415
26.179790 48.026 -69.3473
26.369500 48.710 -69.8908
26.560584 49.459 -71.1622
26.753053 50.209 -73.5375
26.946917 50.911 -76.7411
27.142185 51.524 -80.8156
27.338869 52.018 -85.3035
27.536977 52.380 -90.2087
27.736522 52.603 -94.9993
27.937512 52.694 -99.5857
28.139959 52.667 -103.5935
28.343872 52.569 -106.7360
28.549264 52.443 -108.8460
28.756143 52.384 -109.8228
28.964522 52.458 -109.9892
29.174411 52.723 -109.6815
29.385821 53.167 -109.8365
29.598763 53.743 -110.6888
29.813248 54.363 -112.6849
30.029287 54.958 -115.6133
30.246891 55.483 -119.3586
30.466073 55.907 -123.5852
30.686842 56.225 -128.0079
30.909212 56.442 -132.4950
31.133193 56.578 -136.7287
31.358797 56.655 -140.6963
31.586035 56.694 -144.3346
31.814921 56.721 -147.6910
32.045465 56.742 -150.8867
32.277680 56.756 -154.0070
32.511577 56.749 -157.1673
32.747169 56.699 -160.3159
32.984469 56.588 -163.3958
33.223488 56.406 -166.2249
33.464239 56.158 -168.5108
33.706735 55.871 -170.0721
33.950987 55.589 -170.6835
34.197010 55.383 -170.3409
34.444816 55.314 -169.3465
34.694417 55.412 -168.1064
34.945827 55.674 -167.1518
35.199059 56.049 -166.9203
35.454126 56.484 -167.4969
35.711041 56.936 -168.8469
35.969818 57.374 -170.8646
36.230470 57.785 -173.4273
36.493011 58.160 -176.4666
36.757455 58.490 -179.9401
37.023814 58.763 176.1802
37.292104 58.962 171.9341
37.562338 59.068 167.4518
37.834530 59.067 162.9017
38.108695 58.952 158.4790
38.384846 58.727 154.4203
38.662999 58.412 151.0010
38.943167 58.047 148.4229
39.225365 57.684 146.6829
39.509608 57.368 145.5887
39.795911 57.117 144.7985
40.084289 56.912 143.9489
40.374756 56.696 142.8576
40.667328 56.407 141.7043
40.962020 56.008 141.0253
41.258848 55.519 141.5052
41.557827 55.028 143.7427
41.858972 54.677 147.8815
42.162299 54.591 153.2946
42.467824 54.807 158.9062
42.775564 55.273 164.0851
43.085533 55.951 168.9719
43.397749 56.890 173.7861
43.712227 58.150 177.9127
44.028983 59.672 179.9934
44.348036 61.291 179.0647
44.669400 62.831 175.1259
44.993093 64.175 168.7772
45.319131 65.261 160.7539
45.647532 66.066 151.7244
45.978313 66.591 142.2559
46.311491 66.850 132.8353
46.647083 66.872 123.8912
46.985107 66.697 115.7974
47.325581 66.381 108.8434
47.668521 65.993 103.1746
48.013947 65.607 98.7235
48.361876 65.277 95.2004
48.712326 65.026 92.2048
49.065315 64.841 89.4178
49.420863 64.695 86.7407
49.778987 64.573 84.2847
50.139706 64.490 82.2253
50.503039 64.486 80.5977
50.869005 64.605 79.1509
51.237623 64.857 77.4087
51.608912 65.202 74.9647
51.982891 65.584 71.7451
52.359580 65.974 67.9842
52.739000 66.393 63.9305
53.121168 66.891 59.4868
53.506106 67.495 54.0829
53.893833 68.154 46.9990
54.284370 68.754 37.7909
54.677737 69.167 26.4959
55.073955 69.285 13.5385
55.473043 69.032 -0.4506
55.875024 68.357 -14.7382
56.279917 67.230 -28.5769
56.687745 65.643 -40.9518
57.098527 63.630 -50.5868
57.512287 61.305 -56.2217
57.929045 58.884 -57.4430
58.348822 56.595 -55.5529
58.771642 54.489 -52.4899
59.197525 52.452 -47.4735
59.626495 50.555 -37.3123
60.058573 49.249 -21.3784
60.493782 48.894 -5.5684
60.932145 49.265 6.3958
61.373685 50.036 15.5952
61.818424 51.061 22.8101
62.266386 52.238 27.9336
62.717593 53.489 31.0792
63.172071 54.759 32.2977
63.629842 55.966 31.5070
64.090930 57.019 29.1449
64.555359 57.900 26.3254
65.023154 58.709 24.2592
65.494339 59.626 23.3546
65.968938 60.795 22.9377
66.446976 62.244 21.9965
66.928478 63.936 19.7079
67.413469 65.787 15.2256
67.901975 67.650 7.7734
68.394021 69.337 -2.9526
68.889632 70.699 -16.3069
69.388835 71.647 -31.1926
69.891655 72.162 -46.5621
70.398118 72.282 -61.1398
70.908252 72.105 -74.1113
71.422083 71.786 -84.8961
71.939636 71.487 -93.7234
72.460941 71.299 -101.4532
72.986023 71.218 -108.8490
73.514909 71.192 -116.1998
74.047629 71.196 -123.4058
74.584208 71.243 -130.3971
75.124676 71.357 -137.3756
75.669061 71.539 -144.8018
76.217390 71.733 -153.2775
76.769692 71.829 -163.1024
77.325997 71.696 -174.0834
77.886333 71.228 174.6609
78.450730 70.387 164.3292
79.019216 69.226 156.3030
79.591822 67.903 151.5071
80.168577 66.621 149.5928
80.749512 65.496 149.1038
81.334656 64.467 149.0189
81.924040 63.413 150.0757
82.517696 62.374 154.5146
83.115653 61.825 165.7429
83.717943 62.669 -175.3095
84.324598 64.963 -159.0944
84.935649 67.685 -154.8729
85.551128 70.097 -160.1369
86.171066 71.950 -170.5267
86.795497 73.233 177.0115
87.424453 74.048 164.5261
88.057967 74.560 153.0758
88.696071 74.922 142.6904
89.338800 75.205 132.7997
89.986185 75.407 123.0087
90.638262 75.522 113.4644
91.295065 75.606 104.5820
91.956626 75.788 96.2983
92.622982 76.145 87.2162
93.294166 76.542 75.2287
93.970214 76.653 59.6232
94.651161 76.166 41.7441
95.337042 74.906 24.3425
96.027894 72.884 11.3021
96.723752 70.417 6.5624
97.424652 68.176 8.2392
98.130631 66.609 8.4121
98.841726 65.457 5.5393
99.557974 64.364 1.8282
100.279412 63.187 -1.7631
101.006078 61.899 -4.4694
101.738010 60.574 -5.9944
102.475245 59.267 -7.3099
103.217823 57.938 -8.3298
103.965782 56.642 -7.8494
104.719161 55.558 -7.2720
105.477999 54.697 -9.6727
106.242336 53.898 -15.5660
107.012212 53.189 -24.4116
107.787666 52.963 -37.1064
108.568740 53.819 -55.0338
109.355474 55.877 -77.8438
110.147909 58.464 -102.9200
110.946086 60.895 -127.8491
111.750047 62.862 -151.4565
112.559834 64.299 -173.2032
113.375489 65.243 167.1970
114.197055 65.751 149.7386
115.024574 65.878 134.3368
115.858089 65.670 121.0215
116.697645 65.173 109.7885
117.543284 64.413 100.6289
118.395051 63.398 93.9429
119.252990 62.183 90.9392
120.117147 60.969 92.9014
120.987565 60.120 99.9263
121.864291 60.054 110.1663
122.747370 60.970 120.6866
123.636848 62.681 128.6442
124.532771 64.696 130.4155
125.435187 66.502 124.9919
126.344142 67.778 114.4863
127.259684 68.376 101.5286
128.181860 68.264 88.9521
129.110718 67.609 80.4080
130.046308 66.898 78.3351
130.988677 66.620 78.4646
131.937875 66.587 74.1873
132.893951 66.224 66.5237
133.856956 65.361 61.6390
134.826938 64.707 68.8706
135.803950 65.447 84.4467
136.788041 67.020 84.7927
137.779264 68.106 72.5247
138.777669 68.172 55.8613
139.783309 67.098 40.2269
140.796237 65.066 34.0933
141.816504 63.323 59.3074
142.844165 63.926 91.2971
143.879273 65.848 93.2026
144.921881 67.428 84.9573
145.972045 68.302 73.9316
147.029819 68.497 62.8602
148.095257 68.107 53.5106
149.168417 67.263 47.2096
150.249353 66.130 44.7908
151.338121 65.020 48.4540
152.434780 64.755 61.8943
153.539385 66.135 79.7206
154.651995 68.554 87.8895
155.772667 71.054 85.5619
156.901460 73.230 76.7576
158.038432 74.877 62.6738
159.183644 75.752 44.0911
160.337154 75.695 24.4060
161.499023 74.827 8.1678
162.669312 73.515 -2.8730
163.848081 72.124 -10.1213
165.035392 70.888 -15.2993
166.231306 69.777 -22.3827
167.435887 68.341 -31.5615
168.649196 66.310 -33.3053
169.871298 64.260 -21.0642
171.102255 63.058 -10.3818
172.342133 62.563 -6.4191
173.590995 62.383 -1.5852
174.848907 62.832 9.9601
176.115934 63.963 17.3302
177.392143 64.981 13.5725
178.677599 65.390 6.3120
179.972371 65.338 2.0314
181.276525 65.375 2.8538
182.590129 66.110 7.1395
183.913252 67.667 9.4653
185.245964 69.546 4.1218
186.588332 71.242 -8.7574
187.940428 72.448 -28.1952
189.302322 72.879 -53.8547
190.674085 72.207 -83.9177
192.055788 70.238 -114.0493
193.447503 67.121 -139.4133
194.849303 63.901 -95.8158
196.261262 62.939 -34.7856
197.683452 63.653 -62.9609
199.115948 63.905 -95.2814
200.558824 63.312 -127.9049
202.012156 62.624 -150.8994
203.476019 63.646 -127.9487
204.950490 66.119 -135.5565
206.435646 68.389 -165.9705
207.931564 70.117 163.9775
209.438322 71.349 136.3243
210.955998 72.017 110.1759
212.484672 72.017 85.7878
214.024424 71.357 65.4868
215.575333 70.493 54.1847
217.137481 70.407 51.1924
218.710948 71.050 40.1569
220.295818 71.077 17.1013
221.892172 69.697 -6.6101
223.500094 67.336 -21.1195
225.119668 66.355 -43.9093
226.750978 68.375 159.4260
228.394109 70.792 117.2025
230.049147 72.115 85.6162
231.716178 72.342 62.1328
233.395289 72.171 50.3069
235.086567 72.383 44.4738
236.790102 73.074 37.3597
238.505980 74.099 30.1053
240.234293 75.083 17.4132
241.975130 75.198 -4.1422
243.728581 73.896 -23.6533
245.494739 71.681 -17.4420
247.273695 70.642 11.3363
249.065542 71.600 14.8417
250.870374 72.597 3.0806
252.688284 72.798 -9.8068
254.519367 72.742 -15.0723
256.363720 73.304 -13.8704
258.221437 74.239 -20.1965
260.092616 74.430 -37.3082
261.977354 73.534 -51.0762
263.875750 72.155 -56.3777
265.787903 71.011 -57.5933
267.713911 70.634 -54.9656
269.653877 70.921 -58.5096
271.607900 70.901 -73.0476
273.576083 69.823 -89.7761
275.558528 67.914 -89.6519
277.555338 66.777 -64.7584
279.566619 67.231 -65.5653
281.592474 67.935 -83.0396
283.633009 68.092 -111.5269
285.688331 67.572 -160.1926
287.758546 66.984 95.1926
289.843763 67.340 37.3572
291.944090 68.633 12.9192
294.059638 70.439 0.7556
296.190515 72.227 -11.8042
298.336833 73.351 -30.3218
300.498705 73.612 -49.5347
302.676243 73.135 -66.6777
304.869559 72.222 -76.8982
307.078770 71.982 -67.0537
309.303989 73.108 -62.3467
311.545334 74.327 -76.5095
313.802919 74.770 -96.4128
316.076865 74.247 -116.4587
318.367288 72.844 -130.4734
320.674309 71.070 -134.9839
322.998047 69.567 -136.8691
325.338624 68.621 -138.1624
327.696162 68.633 -133.2983
330.070783 69.867 -128.4014
332.462612 71.348 -138.1807
334.871773 72.065 -158.5930
337.298392 71.648 178.3235
339.742595 70.130 159.1687
342.204510 67.844 150.5845
344.684265 65.786 158.6135
347.181989 65.468 168.6782
349.697813 66.503 165.1025
352.231868 67.431 150.7344
354.784285 67.779 133.4597
357.355198 67.567 115.4526
359.944741 66.799 97.7820
362.553049 65.594 83.5459
365.180258 64.328 72.3972
367.826505 63.292 62.0330
370.491927 62.739 77.9636
373.176665 62.893 89.5193
375.880856 63.184 76.8970
378.604644 63.999 74.6472
381.348169 65.688 74.4541
384.111575 67.054 58.6616
386.895006 67.314 37.5317
389.698607 66.770 22.4106
392.522524 66.298 15.6582
395.366904 66.835 17.7207
398.231895 68.142 12.0635
401.117648 69.103 -5.1768
404.024312 69.228 -25.6985
406.952038 68.447 -43.9666
409.900981 67.178 -53.0171
412.871292 66.426 -54.9111
415.863128 66.911 -55.4106
418.876643 67.935 -66.3186
421.911996 68.193 -89.7014
424.969344 67.159 -114.7712
428.048847 64.949 -133.3494
431.150666 62.370 -131.7068
434.274961 61.859 -87.6172
437.421897 63.584 -81.7927
440.591636 64.927 -105.1455
443.784345 65.087 -131.3127
447.000189 64.398 -142.5996
450.239337 64.037 -138.2373
453.501956 64.311 -151.9868
456.788219 64.792 -168.7432
460.098294 65.965 -178.3877
463.432356 67.761 167.4456
466.790578 69.007 138.6836
470.173135 68.942 102.9646
473.580203 67.317 71.4045
477.011961 64.599 72.1804
480.468586 63.272 106.6897
483.950259 65.344 116.2227
487.457163 68.055 101.6257
490.989478 69.790 74.2195
494.547390 70.373 44.0398
498.131084 69.865 16.3291
501.740748 68.750 0.8154
505.376568 68.014 -9.4741
509.038735 67.418 -29.1594
512.727439 66.486 -47.2190
516.442874 65.523 -66.3425
520.185232 64.885 -87.2512
523.954708 64.834 -123.4641
527.751500 64.807 160.3640
531.575805 64.670 58.2891
535.427822 64.432 -1.1677
539.307753 63.853 -46.0618
543.215800 62.796 -85.9004
547.152165 61.531 6.4023
551.117055 61.270 1.5959
555.110677 62.870 -7.6721
559.133237 65.637 -14.6292
563.184947 68.176 -40.7778
567.266018 69.860 -76.1357
571.376661 70.230 -117.8474
575.517092 69.042 -159.7812
579.687526 66.476 172.9568
583.888181 63.251 -165.3254
588.119275 60.949 -154.3911
592.381030 60.762 -158.9131
596.673667 61.691 -169.0637
600.997410 62.605 172.1370
605.352485 63.565 155.9600
609.739119 64.415 133.4778
614.157540 64.393 106.0557
618.607979 64.388 110.5054
623.090667 65.942 133.4231
627.605839 67.604 110.5728
632.153730 68.436 82.9221
636.734576 68.678 54.9995
641.348617 68.284 26.2100
645.996094 67.591 1.1338
650.677248 67.020 -24.7649
655.392323 66.188 -55.9502
660.141566 65.839 -80.5564
664.925224 67.388 -122.5854
669.743546 70.190 -167.9146
674.596784 72.889 148.7842
679.485191 74.743 105.1797
684.409020 75.533 61.9956
689.368530 74.992 20.0459
694.363979 72.940 -13.4224
699.395626 69.900 -27.2686
704.463736 67.439 -30.9146
709.568570 66.213 -50.8516
714.710396 64.573 -73.1836
719.889483 62.290 -73.8403
725.106099 61.052 -75.2354
730.360516 61.772 -83.6582
735.653010 63.200 -114.1055
740.983855 64.558 -151.8306
746.353329 65.750 173.4502
751.761713 66.261 136.5903
757.209288 66.025 109.0962
762.696339 65.349 88.5396
768.223151 65.002 80.3057
773.790013 65.421 64.6899
779.397214 65.691 45.3931
785.045047 66.308 52.1665
790.733808 67.811 77.0557
796.463791 68.696 52.8950
802.235296 68.391 26.0483
808.048623 67.884 15.7085
813.904077 67.908 6.4736
819.801961 67.913 -8.7378
825.742584 68.259 -20.3535
831.726255 68.721 -49.3398
837.753287 68.377 -91.9136
843.823992 67.374 -141.2305
849.938689 66.558 176.4727
856.097695 67.190 158.2100
862.301332 68.420 128.1138
868.549922 69.101 97.2871
874.843793 69.767 76.8931
881.183272 71.105 72.0356
887.568689 72.539 56.9404
894.000378 72.875 29.2441
900.478673 72.047 7.1484
907.003913 71.062 -8.5078
913.576437 70.490 -26.8423
920.196588 70.010 -53.0400
926.864712 69.094 -90.8911
933.581156 68.431 -173.5869
940.346270 68.716 81.1812
947.160407 69.504 47.1782
954.023921 70.058 18.1738
960.937172 69.424 -7.0527
967.900519 68.225 -13.5444
974.914325 67.777 -11.7451
981.978956 67.827 -21.2637
989.094780 67.728 -32.6138
996.262169 67.974 -42.4287
1003.481495 69.127 -52.6460
1010.753136 70.311 21.0679
1018.077470 70.712 -1.3228
1025.454879 70.105 -27.7798
1032.885748 69.287 -35.9995
1040.370463 69.136 -45.9980
1047.909417 69.020 -62.7959
1055.503000 68.664 -78.8530
1063.151610 68.000 -98.1826
1070.855645 67.046 -97.7456
1078.615506 66.673 -90.4863
1086.431599 66.621 -112.9038
1094.304330 67.174 -82.1870
1102.234110 68.235 2.5835
1110.221353 69.482 -23.2739
1118.266475 70.484 -59.0088
1126.369895 70.013 -99.7017
1134.532035 68.058 -135.1182
1142.753322 65.827 -175.2676
1151.034184 64.046 36.6865
1159.375052 62.957 -27.8584
1167.776361 63.744 -8.4375
1176.238550 65.498 -29.3076
1184.762060 66.512 -54.1714
1193.347334 66.827 -80.3750
1201.994821 66.563 -121.4399
1210.704971 65.506 168.0024
1219.478238 63.966 14.6914
1228.315080 63.320 -22.0859
1237.215957 63.166 -57.5479
1246.181334 62.534 -89.4463
1255.211678 61.988 9.1650
1264.307459 61.832 -3.9531
1273.469152 61.875 -10.4492
1282.697235 62.466 8.5000
1291.992188 63.908 1.3433
1301.354495 65.366 -17.5122
1310.784647 66.182 -35.0474
1320.283132 67.286 -22.3735
1329.850448 68.495 -33.7173
1339.487093 68.785 -60.5371
1349.193569 68.212 -87.4707
1358.970381 66.914 -95.5181
1368.818041 66.142 -70.0566
1378.737061 66.665 -82.9844
1388.727958 66.963 -113.9121
1398.791253 65.861 -150.4785
1408.927471 64.635 4.7026
1419.137140 64.978 -29.2695
1429.420793 65.672 -54.7368
1439.778965 65.842 -74.0635
1450.212197 65.583 -93.2061
1460.721033 65.177 -106.3037
1471.306019 64.616 -120.9795
1481.967709 63.725 -127.7744
1492.706658 63.890 -74.7339
1503.523426 65.268 -68.3662
1514.418576 65.926 -86.7314
1525.392678 65.536 -96.3818
1536.446302 65.139 -90.2212
1547.580025 65.237 -81.4736
1558.794428 65.400 -86.6318
1570.090095 65.332 -93.6807
1581.467615 65.308 -102.8584
1592.927581 65.763 -108.6685
1604.470591 67.123 -99.6050
1616.097246 68.357 -112.4170
1627.808153 68.869 -131.6162
1639.603922 69.281 -138.8887
1651.485168 69.192 -152.2617
1663.452510 68.215 -168.0244
1675.506573 67.405 -176.7896
1687.647984 67.299 166.9600
1699.877377 66.646 139.3569
1712.195390 65.482 123.3892
1724.602663 65.575 -136.5063
1737.099845 66.603 -153.9937
1749.687587 67.100 176.7090
1762.366544 66.450 148.5854
1775.137379 65.145 129.0474
1788.000756 64.338 131.4971
1800.957346 64.208 132.9619
1814.007826 64.527 110.9004
1827.152874 65.263 80.8677
1840.393177 66.139 30.2173
1853.729425 67.723 -35.6211
1867.162312 69.706 -93.1260
1880.692540 70.631 -145.9722
1894.320813 70.047 169.7163
1908.047843 69.215 135.1328
1921.874344 68.800 99.7129
1935.801038 68.118 105.5410
1949.828650 67.754 127.0742
1963.957912 68.061 103.4902
1978.189561 68.222 76.9175
1992.524338 68.065 22.5249
2006.962991 68.115 -43.1069
2021.506272 68.572 -119.7769
2036.154940 68.718 167.7817
2050.909758 68.375 99.8237
2065.771495 67.971 32.4917
2080.740927 67.491 -28.0132
2095.818833 66.792 -67.4570
2111.006001 66.832 -88.5752
2126.303220 68.300 -105.0410
2141.711290 69.869 -130.1372
2157.231013 70.331 -158.8423
2172.863198 70.294 175.9194
2188.608660 69.745 147.6016
2204.468221 68.811 121.6572
2220.442706 68.215 95.6343
2236.532950 67.875 172.2095
2252.739789 67.871 -164.1089
2269.064070 68.392 175.3428
2285.506644 68.771 145.1128
2302.068367 68.518 114.3315
2318.750104 67.995 82.5811
2335.552723 67.675 50.3086
2352.477101 67.485 -150.4995
2369.524119 67.348 -170.3027
2386.694668 68.146 -179.6523
2403.989641 69.344 163.6685
2421.409941 69.982 139.6392
2438.956476 69.968 118.9849
2456.630160 69.106 114.4009
2474.431915 68.153 113.7319
2492.362668 67.672 101.2959
2510.423356 67.340 79.7905
2528.614918 66.925 71.5884
2546.938304 67.257 140.2085
2565.394469 68.541 126.4429
2583.984375 69.333 100.9878
2602.708991 68.595 77.0454
2621.569293 67.060 71.1475
2640.566265 66.463 87.4858
2659.700897 67.028 116.8286
2678.974186 67.758 106.2642
2698.387137 68.299 95.1426
2717.940763 68.462 76.0693
2737.636082 67.586 55.2725
2757.474121 66.256 36.1177
2777.455915 66.231 127.8081
2797.582506 67.596 118.7505
2817.854942 68.298 84.9502
2838.274281 67.805 56.0566
2858.841586 66.554 47.1851
2879.557931 65.134 69.5742
2900.424394 64.330 66.0347
2921.442065 64.079 68.6245
2942.612039 64.103 67.8804
2963.935418 63.758 53.1636
2985.413316 63.377 72.0786
3007.046852 63.922 87.9238
3028.837153 64.874 69.4609
3050.785356 65.736 65.6318
3072.892604 66.260 121.2227
3095.160050 66.740 115.6562
3117.588856 66.488 90.1465
3140.180190 65.658 70.8848
3162.935230 64.926 60.7910
3185.855163 64.876 58.4761
3208.941182 64.989 44.5376
3232.194493 64.450 30.9326
3255.616307 64.010 40.5200
3279.207844 63.887 41.9551
3302.970336 63.290 27.8442
3326.905021 62.462 39.5879
3351.013146 62.206 34.8237
3375.295969 62.585 39.1304
3399.754755 63.479 64.9111
3424.390779 64.063 38.4663
3449.205326 63.590 6.0640
3474.199690 62.556 -20.9624
3499.375173 61.544 -12.8306
3524.733088 60.964 130.7876
3550.274757 61.121 121.2559
3576.001511 61.650 120.8926
3601.914692 62.695 125.2061
3628.015651 64.209 112.5356
3654.305748 65.013 83.0571
3680.786354 64.425 57.6465
3707.458849 62.860 48.3696
3734.324624 60.910 62.4229
3761.385080 59.847 70.1816
3788.641627 60.185 90.3682
3816.095686 61.250 110.3101
3843.748688 62.246 104.1421
3871.602076 62.985 111.9307
3899.657300 63.595 112.5571
3927.915825 63.720 98.8276
3956.379122 63.128 89.3564
3985.048676 62.697 84.1562
4013.925981 62.885 81.9146
4043.012544 63.477 85.8267
4072.309879 63.946 88.9170
4101.819515 64.081 85.5381
4131.542990 64.103 79.7236
4161.481854 64.468 77.1948
4191.637667 64.958 72.3125
4222.012001 65.556 66.4961
4252.606441 65.903 54.4497
4283.422580 65.387 41.7134
4314.462026 64.670 39.5747
4345.726396 64.377 36.8047
4377.217321 64.230 31.7808
4408.936442 63.645 20.0244
4440.885413 62.713 23.0562
4473.065899 62.106 24.9565
4505.479579 61.565 28.8765
4538.128141 60.960 37.7554
4571.013288 60.844 47.7070
4604.136735 61.436 52.9795
4637.500207 62.193 48.2217
4671.105446 62.871 52.9922
4704.954201 63.396 43.4023
4739.048239 63.608 46.4634
4773.389336 63.998 65.4941
4807.979283 63.836 49.9980
4842.819883 62.909 41.3643
4877.912952 62.308 37.2529
4913.260320 62.222 39.3555
4948.863830 62.410 39.0586
4984.725337 62.568 40.5566
5020.846712 63.111 70.4507
5057.229836 63.859 82.9316
5093.876609 63.765 56.8115
5130.788938 62.838 49.5371
5167.968750 61.888 71.9365
5205.417982 60.917 70.2656
5243.138586 60.840 87.4668
5281.132530 62.217 113.2231
5319.401793 63.434 95.4014
5357.948371 63.643 80.6045
5396.774274 63.747 78.1895
5435.881525 63.888 72.9087
5475.272163 63.691 61.2949
5514.948243 63.164 59.5576
5554.911831 63.581 78.4194
5595.165012 64.854 71.7354
5635.709884 65.535 58.7563
5676.548561 65.680 56.1631
5717.683172 65.549 48.2227
5759.115861 64.780 37.1973
5800.848789 64.062 32.9829
5842.884130 64.042 37.5234
5885.224077 64.251 32.8423
5927.870837 63.995 24.8984
5970.826633 63.646 22.3750
6014.093704 63.440 12.0063
6057.674306 62.752 1.7490
6101.570711 61.995 13.5581
6145.785208 61.506 11.7607
6190.320101 60.948 6.4473
6235.177712 60.750 15.4604
6280.360380 61.121 5.5493
6325.870460 61.597 18.7031
6371.710325 61.547 82.8579
6417.882365 61.251 68.0981
6464.388986 61.221 58.8940
6511.232613 61.307 55.7251
6558.415689 61.025 47.7617
6605.940673 60.793 48.3281
6653.810042 61.138 50.1123
6702.026292 61.514 51.3809
6750.591937 62.185 65.9453
6799.509509 63.107 67.3003
6848.781558 63.673 59.8994
6898.410653 63.775 48.8491
6948.399380 63.671 40.2788
6998.750346 63.769 39.3198
7049.466176 64.144 36.4590
7100.549514 64.130 26.9517
7152.003023 63.526 16.9629
7203.829385 62.626 15.5146
7256.031302 62.072 24.5317
7308.611496 62.168 37.0000
7361.572708 62.789 37.9951
7414.917698 63.280 27.5581
7468.649249 63.611 17.2817
7522.770160 63.705 6.1392
7577.283253 63.389 9.6665
7632.191371 63.039 6.1655
7687.497376 62.541 -9.0352
7743.204151 62.014 -18.1274
7799.314600 62.001 -14.9395
7855.831649 62.629 79.9150
7912.758244 63.173 57.8066
7970.097352 63.023 48.7529
8027.851962 62.696 42.5664
8086.025087 62.965 57.5591
8144.619758 63.675 54.3574
8203.639030 64.029 46.2847
8263.085980 64.340 39.7300
8322.963708 64.342 29.1143
8383.275334 64.106 24.7173
8444.024002 64.124 19.5972
8505.212881 64.568 19.9043
8566.845160 64.823 11.3740
8628.924051 64.422 0.8140
8691.452792 63.714 -5.7559
8754.434642 63.141 -3.5522
8817.872884 63.174 -7.9355
8881.770826 62.464 -24.0791
8946.131799 60.928 -32.2617
9010.959157 60.245 -11.7593
9076.256282 60.503 23.7510
9142.026576 60.634 15.7583
9208.273470 60.902 22.1553
9275.000415 62.074 39.6904
9342.210891 63.254 34.2358
9409.908403 63.312 19.4561
9478.096478 62.683 11.2461
9546.778672 62.212 17.6904
9615.958566 62.437 20.5459
9685.639765 62.543 13.9810
9755.825904 62.574 9.2642
9826.520640 62.604 7.7466
9897.727659 62.409 4.0093
9969.450674 62.206 -1.7827
10041.693423 62.027 -7.2173
10114.459673 61.626 -12.5571
10187.753217 60.884 -14.2510
10261.577877 60.135 -15.7026
10335.937500 59.515 -21.6035
10410.835964 58.866 -22.8755
10486.277173 58.844 -13.0713
10562.265060 58.942 -12.3457
10638.803587 58.424 -12.4102
10715.896743 58.565 28.7075
10793.548548 59.557 33.9541
10871.763050 60.235 27.7812
10950.544327 60.871 30.2969
11029.896485 61.809 22.0249
11109.823662 62.226 4.9224
11190.330024 61.770 -7.2466
11271.419768 61.012 -10.4844
11353.097122 60.363 -15.1006
11435.366344 59.638 -22.0288
11518.231722 58.884 -19.7734
11601.697577 58.466 -9.5566
11685.768261 58.329 -2.6357
11770.448155 58.497 0.8711
11855.741674 59.084 0.6138
11941.653265 59.604 -7.6118
12028.187408 59.366 -17.1152
12115.348612 58.578 -17.3828
12203.141422 58.012 -13.6636
12291.570415 57.332 -19.2671
12380.640201 56.195 -13.1709
12470.355424 55.870 8.5347
12560.720760 57.110 20.3496
12651.740920 59.233 28.1812
12743.420650 61.015 20.3604
12835.764729 61.922 4.7056
12928.777972 62.196 -10.8105
13022.465227 61.803 -25.4478
13116.831378 60.518 -36.9897
13211.881345 58.671 -29.4248
13307.620084 57.868 -5.1870
13404.052584 58.456 -3.2017
13501.183875 59.061 -8.4526
13599.019019 59.224 -12.7173
13697.563116 59.091 -19.3584
13796.821305 58.740 -26.1245
13896.798760 58.410 -31.5498
13997.500692 57.805 -39.9717
14098.932352 56.623 -39.8354
14201.099028 55.794 -30.1094
14304.006046 55.662 -26.6372
14407.658770 55.964 -24.8843
14512.062604 56.324 -30.4253
14617.222992 56.153 -38.5942
14723.145416 55.615 -42.2036
14829.835397 54.970 -45.5713
14937.298497 54.150 -46.7124
15045.540320 53.526 -41.4668
15154.566507 53.291 -41.2759
15264.382743 53.144 -43.5977
15374.994752 52.934 -48.4321
15486.408302 52.284 -57.1924
15598.629201 51.040 -58.6235
15711.663298 49.680 -57.2246
15825.516487 48.588 -46.3999
15940.194703 48.215 -37.5781
16055.703925 48.301 -37.7417
16172.050174 48.787 -38.0737
16289.239516 49.023 -51.0132
16407.278061 48.189 -68.8037
16526.171961 46.920 -87.0664
16645.927415 46.125 -134.8008
16766.550667 46.751 83.7261
16888.048005 48.662 63.1421
17010.425762 50.237 44.2124
17133.690320 50.628 27.5015
17257.848103 50.557 22.6289
17382.905584 50.759 21.4019
17508.869284 51.557 24.6777
17635.745768 52.167 15.7109
17763.541652 51.895 2.8799
17892.263597 50.943 -6.9424
18021.918315 49.834 -0.4053
18152.512564 49.502 16.2461
18284.053153 50.083 19.0288
18416.546939 51.000 19.8447
18550.000830 51.873 17.2046
18684.421783 52.589 9.8447
18819.816805 52.857 -1.3018
18956.192956 52.442 -12.4570
19093.557344 51.417 -21.2485
19231.917131 50.130 -25.8149
19371.279531 48.734 -28.6738
19511.651807 47.217 -26.4316
19653.041280 46.101 -20.5000
19795.455318 45.715 -16.5254
19938.901348 45.850 -16.7319
