* Measurement data measured by REW V5.31
* Source: Scarlett 2i4 USB, MICROPHONE, R, volume: no control. Timing signal peak level -28.2 dBFS, measurement signal peak level -17.8 dBFS
* Format: 512k Log Swept Sine, 1 sweep at -18.0 dBFS using an acoustic timing reference
* Dated: Apr 16, 2024 8:36:49 AM
* REW Settings:
*  C-weighting compensation: Off
*  Target level: 75.0 dB
* Note: ; Delay -4.4305 ms (-1.520 m, -(4 ft 11.8 in)) using estimated IR delay relative to Acoustic reference played from SPEAKER L with no timing offset
* Measurement: rug-p2-rl
* Smoothing: 1/48 octave
* Frequency Step: 96 ppo
* Start Frequency: 10.093689 Hz
*
* Freq(Hz) SPL(dB) Phase(degrees)
10.093689 28.234 -2.1252
10.166832 28.540 -3.6786
10.240505 28.910 -5.4398
10.314712 29.289 -7.3448
10.389457 29.661 -9.3651
10.464743 29.992 -11.5349
10.540575 30.258 -14.0094
10.616956 30.477 -16.6599
10.693891 30.642 -19.3443
10.771383 30.748 -21.9590
10.849437 30.797 -24.7497
10.928057 30.788 -27.7984
11.007246 30.708 -30.8898
11.087009 30.546 -33.8059
11.167350 30.305 -36.5964
11.248273 29.988 -39.6288
11.329783 29.567 -42.6942
11.411883 29.006 -45.4736
11.494578 28.284 -47.7414
11.577873 27.412 -49.8757
11.661771 26.377 -51.6520
11.746277 25.135 -52.4959
11.831395 23.542 -51.4139
11.917130 21.469 -47.1884
12.003487 19.393 -37.0186
12.090469 18.149 -16.8434
12.178081 18.512 10.3318
12.266329 20.203 31.5104
12.355216 22.341 41.9539
12.444747 24.251 45.9019
12.534926 25.785 46.3615
12.625760 27.153 45.1235
12.717251 28.350 43.0892
12.809406 29.335 40.6046
12.902228 30.097 37.3136
12.995723 30.670 33.6106
13.089895 31.099 29.9729
13.184750 31.412 26.3993
13.280292 31.592 22.3051
13.376526 31.640 18.1405
13.473458 31.559 14.3958
13.571093 31.355 10.5889
13.669434 31.013 6.5769
13.768489 30.509 2.8927
13.868261 29.830 -0.1003
13.968756 28.977 -2.8968
14.069979 27.916 -5.1092
14.171936 26.565 -5.8187
14.274632 24.795 -4.1443
14.378072 22.984 1.1224
14.482261 21.775 11.6837
14.587206 21.481 29.8664
14.692910 21.891 50.1147
14.799381 22.755 63.0829
14.906624 24.036 68.7498
15.014643 25.576 70.3417
15.123446 26.944 69.5466
15.233036 27.911 66.8263
15.343421 28.595 62.6523
15.454606 29.061 58.0483
15.566596 29.334 52.8449
15.679398 29.406 46.4316
15.793018 29.287 39.7398
15.907460 28.982 32.5851
16.022732 28.491 23.8059
16.138840 27.838 14.2105
16.255788 26.995 3.2177
16.373585 26.042 -11.2132
16.492234 25.270 -28.4477
16.611744 24.817 -49.9720
16.732119 24.716 -75.5135
16.853367 25.097 -98.7657
16.975494 26.013 -119.2263
17.098505 27.147 -135.6384
17.222408 28.175 -148.2357
17.347209 29.100 -159.5833
17.472914 29.885 -169.2339
17.599530 30.481 -177.7056
17.727063 30.902 173.9659
17.855521 31.159 166.5859
17.984909 31.251 159.3370
18.115235 31.175 152.1744
18.246506 30.932 145.6520
18.378727 30.515 138.8725
18.511907 29.901 132.3611
18.646052 29.086 126.0496
18.781169 28.025 119.4625
18.917265 26.649 113.2368
19.054347 24.935 106.7703
19.192423 22.711 99.9764
19.331499 19.607 93.1444
19.471583 16.591 83.4854
19.612682 15.700 -38.8498
19.754804 16.972 -97.8741
19.897956 18.796 -105.8195
20.042144 20.712 -113.6765
20.187378 22.279 -120.5448
20.333664 23.187 -127.7362
20.481010 23.596 -135.4075
20.629424 23.618 -143.0569
20.778913 23.243 -152.3443
20.929486 22.453 -162.2938
21.081150 21.276 -176.2370
21.233912 20.231 164.3615
21.387782 19.617 130.0053
21.542767 20.050 85.1888
21.698874 21.859 51.7970
21.856113 24.086 32.3242
22.014492 26.005 18.7089
22.174018 27.648 8.0172
22.334700 28.932 -1.1316
22.496546 29.890 -9.6082
22.659566 30.559 -17.2191
22.823766 30.940 -24.7496
22.989157 31.034 -31.4241
23.155745 30.825 -38.0760
23.323542 30.274 -43.5261
23.492554 29.336 -48.3784
23.662790 27.886 -50.6843
23.834261 26.051 -49.1655
24.006973 24.344 -37.5544
24.180938 23.486 -7.5607
24.356163 24.773 20.9462
24.532658 27.200 32.8436
24.710431 29.271 34.7122
24.889493 30.943 33.1090
25.069853 32.121 29.8302
25.251519 32.889 26.3723
25.434502 33.311 23.1420
25.618811 33.471 21.1394
25.804456 33.438 20.7627
25.991445 33.431 22.6044
26.179790 33.593 26.7389
26.369500 34.159 31.5012
26.560584 35.086 35.5868
26.753053 36.215 37.0175
26.946917 37.356 36.0487
27.142185 38.345 32.6868
27.338869 39.097 27.9523
27.536977 39.569 21.9166
27.736522 39.724 15.5847
27.937512 39.531 9.1500
28.139959 38.953 3.2784
28.343872 37.948 -0.6130
28.549264 36.565 -1.0569
28.756143 35.209 6.5062
28.964522 34.781 24.1754
29.174411 36.113 43.4099
29.385821 38.189 51.1463
29.598763 40.345 51.0136
29.813248 42.074 46.1110
30.029287 43.408 39.3029
30.246891 44.370 31.1522
30.466073 45.015 22.6864
30.686842 45.373 14.3022
30.909212 45.471 6.0258
31.133193 45.348 -1.3301
31.358797 45.045 -7.7704
31.586035 44.611 -12.9299
31.814921 44.138 -16.5382
32.045465 43.713 -18.8462
32.277680 43.409 -19.9949
32.511577 43.260 -20.8588
32.747169 43.214 -21.8696
32.984469 43.205 -23.2153
33.223488 43.152 -24.8235
33.464239 43.026 -26.0497
33.706735 42.856 -26.4721
33.950987 42.717 -25.5953
34.197010 42.750 -23.3908
34.444816 43.044 -20.6263
34.694417 43.607 -18.1806
34.945827 44.362 -16.8899
35.199059 45.182 -17.0632
35.454126 45.992 -18.4314
35.711041 46.752 -20.7158
35.969818 47.452 -23.6685
36.230470 48.093 -27.1775
36.493011 48.670 -31.2557
36.757455 49.163 -35.9115
37.023814 49.545 -41.1607
37.292104 49.775 -46.9612
37.562338 49.813 -53.0461
37.834530 49.625 -59.1030
38.108695 49.187 -64.7642
38.384846 48.489 -69.4954
38.662999 47.546 -72.4865
38.943167 46.438 -72.8243
39.225365 45.340 -69.8923
39.509608 44.487 -63.8969
39.795911 44.038 -56.4417
40.084289 43.965 -49.6134
40.374756 44.079 -44.1870
40.667328 44.226 -39.4246
40.962020 44.411 -34.2524
41.258848 44.741 -28.2102
41.557827 45.320 -21.7098
41.858972 46.174 -15.7327
42.162299 47.242 -11.1302
42.467824 48.432 -8.2418
42.775564 49.674 -7.0642
43.085533 50.917 -7.5300
43.397749 52.115 -9.5979
43.712227 53.221 -13.1954
44.028983 54.190 -18.1457
44.348036 54.985 -24.1796
44.669400 55.583 -30.9776
44.993093 55.973 -38.2056
45.319131 56.154 -45.5370
45.647532 56.136 -52.6642
45.978313 55.939 -59.3115
46.311491 55.590 -65.2532
46.647083 55.123 -70.3393
46.985107 54.572 -74.5159
47.325581 53.965 -77.8193
47.668521 53.315 -80.3237
48.013947 52.624 -82.0493
48.361876 51.887 -82.8851
48.712326 51.118 -82.5954
49.065315 50.357 -80.9609
49.420863 49.669 -78.0217
49.778987 49.099 -74.2001
50.139706 48.640 -70.0087
50.503039 48.238 -65.5018
50.869005 47.871 -60.0714
51.237623 47.617 -52.9312
51.608912 47.632 -44.1221
51.982891 48.018 -34.8431
52.359580 48.760 -26.0208
52.739000 49.868 -17.3177
53.121168 51.435 -8.7394
53.506106 53.434 -2.4273
53.893833 55.607 -0.7775
54.284370 57.645 -4.1091
54.677737 59.349 -11.2820
55.073955 60.629 -20.9080
55.473043 61.460 -31.7957
55.875024 61.847 -42.9575
56.279917 61.820 -53.5989
56.687745 61.435 -62.9006
57.098527 60.791 -70.1298
57.512287 60.032 -74.9363
57.929045 59.312 -77.6618
58.348822 58.717 -79.2316
58.771642 58.228 -80.5614
59.197525 57.767 -81.8542
59.626495 57.297 -82.7689
60.058573 56.836 -83.0102
60.493782 56.428 -82.6954
60.932145 56.089 -82.2417
61.373685 55.794 -81.9365
61.818424 55.511 -81.8062
62.266386 55.224 -81.8077
62.717593 54.924 -82.0652
63.172071 54.576 -82.8718
63.629842 54.104 -84.4554
64.090930 53.397 -86.7432
64.555359 52.323 -89.0974
65.023154 50.754 -89.9626
65.494339 48.683 -85.8622
65.968938 46.712 -67.3832
66.446976 46.736 -22.3669
66.928478 49.300 11.6990
67.413469 52.522 23.3510
67.901975 55.441 24.5020
68.394021 57.814 19.7913
68.889632 59.585 11.8641
69.388835 60.765 2.6345
69.891655 61.412 -6.5153
70.398118 61.629 -14.3654
70.908252 61.537 -20.3534
71.422083 61.248 -24.3117
71.939636 60.831 -26.2444
72.460941 60.363 -25.6822
72.986023 60.021 -21.8632
73.514909 60.086 -15.1041
74.047629 60.722 -7.5964
74.584208 61.848 -1.6422
75.124676 63.252 1.4983
75.669061 64.704 1.2523
76.217390 65.985 -2.2813
76.769692 66.948 -8.0151
77.325997 67.547 -14.5491
77.886333 67.829 -20.5179
78.450730 67.902 -25.1580
79.019216 67.885 -28.2634
79.591822 67.877 -30.0309
80.168577 67.952 -30.7711
80.749512 68.161 -31.0158
81.334656 68.494 -31.5798
81.924040 68.876 -32.9828
82.517696 69.231 -35.0613
83.115653 69.536 -37.3772
83.717943 69.808 -39.7708
84.324598 70.048 -42.4537
84.935649 70.219 -45.6024
85.551128 70.268 -49.0972
86.171066 70.156 -52.4962
86.795497 69.884 -55.0374
87.424453 69.527 -55.7861
88.057967 69.252 -54.2983
88.696071 69.232 -51.3577
89.338800 69.514 -48.4950
89.986185 70.030 -46.6631
90.638262 70.701 -45.9965
91.295065 71.484 -46.5010
91.956626 72.340 -48.6091
92.622982 73.171 -53.0646
93.294166 73.817 -60.1845
93.970214 74.126 -69.4768
94.651161 73.993 -79.9890
95.337042 73.350 -90.6865
96.027894 72.140 -100.3145
96.723752 70.327 -106.6700
97.424652 68.025 -105.4418
98.130631 65.829 -90.8770
98.841726 64.919 -67.9028
99.557974 65.625 -51.9005
100.279412 67.025 -44.4571
101.006078 68.470 -42.1336
101.738010 69.776 -42.8760
102.475245 70.902 -45.9278
103.217823 71.791 -51.4174
103.965782 72.308 -59.5018
104.719161 72.278 -69.4138
105.477999 71.564 -79.0848
106.242336 70.161 -85.1155
107.012212 68.330 -83.0879
107.787666 66.793 -70.0491
108.568740 66.486 -51.9481
109.355474 67.378 -39.9106
110.147909 68.605 -35.8430
110.946086 69.631 -36.1180
111.750047 70.372 -37.4852
112.559834 70.938 -38.4649
113.375489 71.446 -39.0843
114.197055 71.942 -39.9178
115.024574 72.403 -41.4503
115.858089 72.750 -44.0941
116.697645 72.860 -47.8048
117.543284 72.633 -51.2978
118.395051 72.149 -51.8262
119.252990 71.811 -46.6983
120.117147 72.141 -38.0392
120.987565 73.144 -32.1561
121.864291 74.378 -31.2460
122.747370 75.487 -34.2882
123.636848 76.278 -40.1086
124.532771 76.651 -47.2405
125.435187 76.608 -54.0020
126.344142 76.233 -59.0717
127.259684 75.689 -61.2089
128.181860 75.287 -59.4131
129.110718 75.339 -56.0668
130.046308 75.731 -55.9600
130.988677 76.025 -60.1162
131.937875 75.899 -66.1386
132.893951 75.288 -70.8831
133.856956 74.345 -72.0610
134.826938 73.343 -68.9193
135.803950 72.626 -61.6933
136.788041 72.533 -51.8438
137.779264 73.176 -42.1950
138.777669 74.240 -37.1698
139.783309 75.212 -37.8019
140.796237 75.897 -39.9225
141.816504 76.470 -40.6050
142.844165 77.078 -41.4598
143.879273 77.637 -44.0290
144.921881 78.076 -47.1603
145.972045 78.439 -50.2090
147.029819 78.742 -53.7609
148.095257 78.944 -58.0295
149.168417 78.989 -62.9500
150.249353 78.824 -68.1577
151.338121 78.431 -72.9207
152.434780 77.820 -76.8713
153.539385 76.988 -79.7910
154.651995 75.963 -80.1840
155.772667 75.057 -74.3795
156.901460 74.944 -62.6754
158.038432 75.785 -54.7344
159.183644 76.902 -54.9596
160.337154 77.729 -60.5713
161.499023 78.141 -67.7565
162.669312 78.280 -74.7342
163.848081 78.258 -82.9406
165.035392 77.923 -94.8994
166.231306 76.917 -110.4328
167.435887 74.946 -126.5081
168.649196 71.974 -139.8501
169.871298 68.845 -154.0015
171.102255 68.574 35.1628
172.342133 70.927 22.1010
173.590995 73.008 9.5875
174.848907 74.367 0.1096
176.115934 75.436 -4.3762
177.392143 76.571 -6.1475
178.677599 77.764 -9.1301
179.972371 78.751 -15.4777
181.276525 79.365 -23.2585
182.590129 79.695 -29.9395
183.913252 79.880 -35.9658
185.245964 79.879 -42.9242
186.588332 79.629 -49.0408
187.940428 79.336 -52.0217
189.302322 79.144 -55.8831
190.674085 78.815 -62.0220
192.055788 78.281 -66.4397
193.447503 77.735 -69.5465
194.849303 77.120 -75.2939
196.261262 76.099 -82.4865
197.683452 74.550 -86.0734
199.115948 72.736 -83.0934
200.558824 71.161 -74.8744
202.012156 70.348 -65.3403
203.476019 70.704 -54.1741
204.950490 72.118 -47.7847
206.435646 73.571 -57.2280
207.931564 74.126 -80.3112
209.438322 73.371 -112.3691
210.955998 71.505 -154.3445
212.484672 69.848 147.0331
214.024424 70.392 104.2263
215.575333 72.512 82.3741
217.137481 74.684 66.0125
218.710948 76.505 51.2390
220.295818 78.029 37.1582
221.892172 79.068 19.0695
223.500094 79.395 -2.5033
225.119668 79.031 -26.8137
226.750978 77.877 -56.5187
228.394109 75.823 -95.5480
230.049147 73.479 -165.9816
231.716178 72.805 131.4919
233.395289 74.367 108.6556
235.086567 76.263 92.6410
236.790102 77.761 79.5055
238.505980 78.947 68.8081
240.234293 79.775 57.2034
241.975130 80.054 44.3694
243.728581 79.744 32.6641
245.494739 78.875 22.5247
247.273695 77.552 18.0624
249.065542 76.621 31.2629
250.870374 77.109 46.0416
252.688284 78.082 42.2583
254.519367 78.492 32.3950
256.363720 78.203 23.0411
258.221437 77.256 15.1293
260.092616 75.742 14.0297
261.977354 74.210 22.2018
263.875750 73.406 35.4738
265.787903 73.486 44.2589
267.713911 74.087 50.9657
269.653877 75.254 61.9315
271.607900 76.625 63.1639
273.576083 77.646 57.8030
275.558528 78.166 50.5072
277.555338 78.134 42.7135
279.566619 77.787 39.2509
281.592474 77.701 41.2281
283.633009 78.025 39.6036
285.688331 78.120 30.0785
287.758546 77.432 18.0588
289.843763 75.887 10.4232
291.944090 73.987 16.4307
294.059638 72.917 34.8588
296.190515 72.941 37.8287
298.336833 72.865 30.1521
300.498705 72.016 20.9437
302.676243 70.342 17.8442
304.869559 68.456 36.4514
307.078770 67.529 51.5028
309.303989 67.472 51.0526
311.545334 67.517 40.8516
313.802919 67.611 18.6478
316.076865 68.386 -162.4125
318.367288 69.530 158.1208
320.674309 70.021 135.7852
322.998047 70.179 133.5486
325.338624 71.336 146.3348
327.696162 73.260 147.5376
330.070783 74.901 139.6490
332.462612 75.739 126.7538
334.871773 75.860 115.7894
337.298392 75.667 108.0658
339.742595 75.415 101.4098
342.204510 75.201 94.9430
344.684265 74.957 85.7074
347.181989 74.345 72.0654
349.697813 73.111 57.1299
352.231868 71.320 41.7563
354.784285 69.119 22.0273
357.355198 66.788 -5.0691
359.944741 65.913 -39.3718
362.553049 68.001 -64.8938
365.180258 70.826 -87.7046
367.826505 72.810 -114.2942
370.491927 73.764 -139.0259
373.176665 73.699 -160.0054
375.880856 72.816 -173.0649
378.604644 71.599 -179.2246
381.348169 70.314 177.1394
384.111575 69.287 -177.3945
386.895006 69.075 -166.0425
389.698607 68.995 -168.7461
392.522524 68.138 -171.0923
395.366904 66.996 -163.9412
398.231895 66.924 -143.2983
401.117648 68.780 -115.5439
404.024312 71.103 -111.5703
406.952038 72.576 -122.1658
409.900981 72.940 -134.9497
412.871292 72.524 -141.9248
415.863128 72.006 -141.6228
418.876643 71.847 -140.2019
421.911996 71.951 -140.7654
424.969344 72.041 -143.7429
428.048847 72.007 -146.7837
431.150666 71.768 -152.1143
434.274961 71.136 -156.6982
437.421897 70.487 -154.4429
440.591636 70.177 -156.5171
443.784345 69.849 -164.3381
447.000189 69.046 -176.2988
450.239337 67.695 171.9355
453.501956 66.313 154.5161
456.788219 65.338 113.0034
460.098294 64.985 -0.0027
463.432356 64.746 -60.7681
466.790578 63.864 -87.4856
470.173135 62.978 -84.0264
473.580203 63.114 -82.3208
477.011961 63.329 -97.6182
480.468586 62.843 -116.2568
483.950259 61.475 -137.8542
487.457163 59.267 -152.5405
490.989478 57.932 -130.7271
494.547390 58.939 -152.8086
498.131084 60.208 139.4233
501.740748 60.699 79.2507
505.376568 60.276 35.0496
509.038735 58.625 3.2043
512.727439 55.892 13.9187
516.442874 53.188 52.8240
520.185232 51.772 71.1025
523.954708 52.607 104.3745
527.751500 54.807 114.6912
531.575805 56.462 107.9775
535.427822 56.796 92.9336
539.307753 56.503 92.0391
543.215800 57.425 165.3237
547.152165 59.629 173.9143
551.117055 61.406 163.7849
555.110677 62.565 159.4180
559.133237 63.840 164.8953
563.184947 65.150 162.9968
567.266018 66.445 160.8613
571.376661 67.634 155.4016
575.517092 68.277 144.4504
579.687526 67.945 130.6567
583.888181 66.714 124.1235
588.119275 65.613 133.5112
592.381030 65.638 140.2288
596.673667 65.790 132.2576
600.997410 65.182 122.8362
605.352485 63.949 114.0447
609.739119 62.250 107.6990
614.157540 60.629 118.2988
618.607979 59.479 128.6033
623.090667 58.666 119.4180
627.605839 58.564 76.1448
632.153730 58.381 -74.3896
636.734576 57.350 -109.1123
641.348617 56.293 -118.9568
645.996094 56.450 -127.7915
650.677248 57.986 -147.7869
655.392323 60.201 13.2080
660.141566 62.373 -12.0542
664.925224 63.966 -32.8311
669.743546 64.935 -47.9272
674.596784 65.570 -61.5286
679.485191 65.764 -77.3057
684.409020 65.282 -98.2651
689.368530 63.737 -125.4919
694.363979 61.223 -164.9148
699.395626 59.987 53.3989
704.463736 62.414 47.4656
709.568570 65.473 36.9585
714.710396 67.179 13.5054
719.889483 67.439 -9.2905
725.106099 67.061 -23.8125
730.360516 66.260 -43.9858
735.653010 64.191 -66.8530
740.983855 61.428 -22.3013
746.353329 61.303 57.0132
751.761713 63.657 56.5332
757.209288 65.095 29.1467
762.696339 64.844 -3.5681
768.223151 63.844 43.0410
773.790013 63.240 62.8420
779.397214 63.340 35.9805
785.045047 64.132 -17.5859
790.733808 65.244 -95.1592
796.463791 66.156 -147.7117
802.235296 66.346 -179.3516
808.048623 66.329 164.7180
813.904077 66.680 155.3840
819.801961 67.151 145.2761
825.742584 67.779 140.0383
831.726255 68.896 138.1836
837.753287 69.849 125.2441
843.823992 70.062 106.9473
849.938689 69.376 88.8406
856.097695 68.062 77.6013
862.301332 66.770 64.7021
868.549922 65.211 53.9324
874.843793 63.963 81.6235
881.183272 64.257 87.4688
887.568689 64.968 72.3274
894.000378 65.143 52.8716
900.478673 64.615 31.3518
907.003913 64.088 31.7227
913.576437 64.163 106.7292
920.196588 64.277 90.0615
926.864712 64.029 76.8145
933.581156 64.367 77.1824
940.346270 65.449 83.7214
947.160407 65.906 74.9258
954.023921 65.542 68.1260
960.937172 65.775 73.7559
967.900519 66.737 73.6069
974.914325 67.094 57.4358
981.978956 66.665 42.7605
989.094780 66.318 31.2935
996.262169 66.077 9.8835
1003.481495 65.669 -16.6719
1010.753136 65.537 -40.2976
1018.077470 65.876 -65.1731
1025.454879 65.862 -94.6992
1032.885748 65.101 -123.2063
1040.370463 63.414 -147.0210
1047.909417 61.904 -161.7859
1055.503000 62.616 10.5642
1063.151610 64.299 -16.0496
1070.855645 65.065 -39.0791
1078.615506 64.576 -52.4170
1086.431599 63.568 -59.7466
1094.304330 62.542 -65.1924
1102.234110 61.850 -51.7964
1110.221353 61.872 -15.7031
1118.266475 62.162 -16.9758
1126.369895 62.792 -2.7908
1134.532035 63.928 27.3440
1142.753322 64.183 17.9893
1151.034184 62.952 9.8589
1159.375052 61.258 16.8074
1167.776361 60.843 33.7747
1176.238550 62.319 104.7573
1184.762060 64.127 113.1138
1193.347334 65.331 107.3792
1201.994821 65.831 98.2700
1210.704971 65.050 88.2034
1219.478238 63.172 87.0408
1228.315080 60.948 100.9783
1237.215957 59.504 140.8333
1246.181334 59.907 162.8081
1255.211678 60.750 166.9448
1264.307459 60.590 164.9812
1273.469152 59.982 -171.5657
1282.697235 60.288 -147.1953
1291.992188 61.155 -155.0930
1301.354495 61.018 -177.9128
1310.784647 59.879 -21.2109
1320.283132 59.215 -28.2285
1329.850448 59.942 -10.5178
1339.487093 61.334 0.9282
1349.193569 62.450 1.5308
1358.970381 63.084 0.1548
1368.818041 63.167 2.8301
1378.737061 63.093 11.2205
1388.727958 62.495 10.0349
1398.791253 61.216 26.6152
1408.927471 60.416 81.2969
1419.137140 59.976 98.0024
1429.420793 60.424 125.0007
1439.778965 62.211 149.3923
1450.212197 63.979 156.2268
1460.721033 64.700 159.2273
1471.306019 65.202 -166.1631
1481.967709 65.799 -158.9341
1492.706658 65.441 -164.4385
1503.523426 64.074 -159.2471
1514.418576 63.457 -124.6504
1525.392678 64.401 -101.2051
1536.446302 64.740 -93.8757
1547.580025 64.503 -74.3337
1558.794428 64.327 -66.9380
1570.090095 63.877 -49.4333
1581.467615 63.797 -13.8396
1592.927581 64.060 6.3130
1604.470591 64.561 22.2024
1616.097246 64.822 32.9490
1627.808153 64.816 52.7583
1639.603922 65.046 70.5378
1651.485168 65.113 81.6042
1663.452510 64.635 94.7800
1675.506573 64.406 117.3193
1687.647984 64.877 138.3687
1699.877377 65.297 155.2690
1712.195390 65.355 171.0999
1724.602663 65.809 -166.6384
1737.099845 66.335 -156.2422
1749.687587 65.768 -149.0742
1762.366544 64.601 -121.5586
1775.137379 64.392 -86.1960
1788.000756 64.938 -65.0676
1800.957346 65.289 -48.8320
1814.007826 65.901 -25.3643
1827.152874 66.262 -15.3145
1840.393177 65.787 0.2297
1853.729425 65.339 25.2917
1867.162312 65.045 46.1113
1880.692540 65.068 74.7993
1894.320813 65.516 97.0815
1908.047843 66.236 115.5161
1921.874344 66.599 129.2778
1935.801038 66.511 149.3242
1949.828650 66.526 169.7085
1963.957912 66.269 -177.7812
1978.189561 65.337 -156.0771
1992.524338 64.762 -124.7002
2006.962991 64.757 -99.8276
2021.506272 64.841 -68.5869
2036.154940 65.529 -40.5677
2050.909758 66.987 -15.2252
2065.771495 68.122 -3.1302
2080.740927 67.965 3.4978
2095.818833 66.891 25.6350
2111.006001 66.327 60.7225
2126.303220 66.234 82.1167
2141.711290 65.896 104.8386
2157.231013 65.830 132.0289
2172.863198 66.530 162.1898
2188.608660 67.384 -177.2612
2204.468221 67.892 -159.2268
2220.442706 68.180 -136.4720
2236.532950 68.313 -115.3436
2252.739789 67.699 -100.9089
2269.064070 66.557 -78.2234
2285.506644 65.849 -45.0548
2302.068367 65.646 -19.9470
2318.750104 65.421 6.0615
2335.552723 65.696 37.0721
2352.477101 66.426 67.6240
2369.524119 66.529 87.5391
2386.694668 65.905 111.3813
2403.989641 65.453 142.4260
2421.409941 65.397 170.3202
2438.956476 65.643 -159.0055
2456.630160 66.451 -129.7056
2474.431915 67.177 -108.2999
2492.362668 67.070 -88.0404
2510.423356 66.669 -58.3558
2528.614918 66.707 -31.9746
2546.938304 66.605 -9.4371
2565.394469 65.995 16.7579
2583.984375 65.382 53.7534
2602.708991 65.889 99.7566
2621.569293 67.075 124.7970
2640.566265 67.576 140.1687
2659.700897 67.110 157.6528
2678.974186 65.764 -171.6543
2698.387137 64.543 -134.1074
2717.940763 64.376 -97.5000
2737.636082 65.434 -56.8563
2757.474121 67.054 -12.0737
2777.455915 68.220 7.4620
2797.582506 68.244 22.9779
2817.854942 67.615 44.6384
2838.274281 66.925 70.4681
2858.841586 66.579 100.4022
2879.557931 66.184 128.8842
2900.424394 64.893 163.9406
2921.442065 63.484 -155.0499
2942.612039 63.123 -115.7733
2963.935418 63.614 -78.7371
2985.413316 64.100 -46.1840
3007.046852 64.777 -14.3173
3028.837153 65.136 11.4446
3050.785356 64.882 38.5048
3072.892604 64.619 71.9404
3095.160050 64.747 114.7297
3117.588856 65.137 148.8915
3140.180190 65.553 -156.0052
3162.935230 66.213 -125.1071
3185.855163 66.343 -111.3691
3208.941182 65.802 -94.3013
3232.194493 64.852 -72.1650
3255.616307 64.314 -55.3121
3279.207844 64.693 83.0260
3302.970336 65.164 116.4670
3326.905021 65.042 140.8680
3351.013146 64.210 158.8408
3375.295969 62.980 -176.9285
3399.754755 62.940 -142.6797
3424.390779 63.575 -114.9822
3449.205326 63.752 -37.3225
3474.199690 63.859 39.0004
3499.375173 64.219 126.2379
3524.733088 64.390 141.9309
3550.274757 63.511 154.8652
3576.001511 62.096 -176.1129
3601.914692 61.464 -116.6245
3628.015651 61.931 -35.6191
3654.305748 63.440 12.0018
3680.786354 64.800 30.5399
3707.458849 65.229 46.7101
3734.324624 65.046 66.2148
3761.385080 64.163 90.8087
3788.641627 63.097 -151.1472
3816.095686 63.775 -93.1177
3843.748688 65.180 -65.7288
3871.602076 65.335 -34.4309
3899.657300 64.235 8.5660
3927.915825 63.344 61.2944
3956.379122 63.482 111.5964
3985.048676 63.693 145.1134
4013.925981 63.406 -174.1208
4043.012544 62.996 -125.0447
4072.309879 63.214 -65.7563
4101.819515 63.653 -21.7910
4131.542990 63.445 13.2877
4161.481854 63.301 58.0547
4191.637667 64.322 128.7327
4222.012001 65.923 -175.8011
4252.606441 66.465 -144.6519
4283.422580 65.794 -109.6962
4314.462026 65.060 -66.3807
4345.726396 64.908 -3.2581
4377.217321 65.473 62.9290
4408.936442 65.935 101.8462
4440.885413 65.817 142.7212
4473.065899 65.782 -163.8030
4505.479579 66.175 -111.7808
4538.128141 66.535 -68.4783
4571.013288 66.379 -23.7266
4604.136735 66.807 46.6758
4637.500207 68.407 103.9329
4671.105446 69.304 138.2966
4704.954201 68.797 172.0908
4739.048239 68.017 -131.4207
4773.389336 68.683 -50.0059
4807.979283 69.649 -5.5420
4842.819883 69.473 31.3403
4877.912952 68.731 84.4270
4913.260320 68.979 149.8508
4948.863830 69.569 -163.7336
4984.725337 69.122 -123.1777
5020.846712 68.399 -61.2297
5057.229836 68.951 6.7405
5093.876609 69.521 49.4192
5130.788938 68.955 91.4985
5167.968750 68.291 157.7441
5205.417982 68.933 -133.2227
5243.138586 69.532 -91.1790
5281.132530 68.861 -51.8770
5319.401793 67.437 13.5632
5357.948371 66.898 96.1658
5396.774274 66.589 144.0786
5435.881525 65.692 -165.1287
5475.272163 65.171 -90.8564
5514.948243 65.216 -33.2883
5554.911831 64.870 14.4509
5595.165012 64.978 102.1250
5635.709884 66.106 173.1750
5676.548561 66.295 -153.1567
5717.683172 65.549 -103.9753
5759.115861 65.751 42.6572
5800.848789 66.205 75.9697
5842.884130 65.415 113.2915
5885.224077 64.400 -139.4224
5927.870837 64.222 -80.4248
5970.826633 64.150 -39.0840
6014.093704 64.142 93.3037
6057.674306 64.123 149.9980
6101.570711 63.766 -156.5664
6145.785208 64.078 -59.7520
6190.320101 64.533 -6.1499
6235.177712 64.204 45.4692
6280.360380 64.247 173.8472
6325.870460 64.753 -130.6699
6371.710325 64.834 -83.7476
6417.882365 64.620 3.3008
6464.388986 64.358 88.1348
6511.232613 64.000 152.9829
6558.415689 64.371 -126.1274
6605.940673 65.163 -63.6895
6653.810042 65.060 2.0396
6702.026292 64.573 101.6328
6750.591937 64.200 169.7427
6799.509509 63.558 -119.3403
6848.781558 63.469 -22.7178
6898.410653 63.963 49.5552
6948.399380 64.261 123.1147
6998.750346 64.734 -151.4038
7049.466176 64.793 -81.7432
7100.549514 64.153 -6.1279
7152.003023 63.921 76.8125
7203.829385 64.060 157.5215
7256.031302 64.518 -113.1260
7308.611496 64.852 -36.1001
7361.572708 64.719 44.6777
7414.917698 64.850 132.5317
7468.649249 64.736 -153.3745
7522.770160 63.930 -72.8994
7577.283253 63.402 15.9038
7632.191371 63.273 100.9409
7687.497376 63.320 -170.1431
7743.204151 63.459 -81.2642
7799.314600 63.378 7.3550
7855.831649 63.271 95.4644
7912.758244 63.494 -176.5508
7970.097352 63.831 -88.2603
8027.851962 63.738 -3.0171
8086.025087 63.026 82.8013
8144.619758 62.426 178.1953
8203.639030 62.419 -89.5605
8263.085980 62.391 -2.9849
8322.963708 61.626 87.8428
8383.275334 60.762 -167.1426
8444.024002 60.373 -71.5371
8505.212881 60.311 45.3291
8566.845160 60.882 156.8525
8628.924051 61.127 -113.5801
8691.452792 61.132 -6.3955
8754.434642 61.657 97.2471
8817.872884 61.599 -178.3076
8881.770826 60.552 -82.5869
8946.131799 59.800 31.5430
9010.959157 60.269 147.2314
9076.256282 61.144 -102.8359
9142.026576 61.632 -6.2803
9208.273470 61.780 91.4404
9275.000415 62.176 -162.6943
9342.210891 62.548 -63.3887
9409.908403 62.131 36.1650
9478.096478 61.506 149.7939
9546.778672 61.169 -103.4492
9615.958566 60.972 3.3828
9685.639765 61.216 118.0713
9755.825904 61.636 -132.0215
9826.520640 61.625 -22.6064
9897.727659 61.599 87.9385
9969.450674 61.398 -162.6855
10041.693423 61.188 -45.7402
10114.459673 60.601 67.8545
10187.753217 60.095 -169.5078
10261.577877 60.130 -44.2588
10335.937500 60.721 75.9375
10410.835964 61.354 -165.9150
10486.277173 61.633 -54.4609
10562.265060 61.578 65.6797
10638.803587 61.441 -176.0439
10715.896743 61.037 -49.0352
10793.548548 60.531 72.0391
10871.763050 59.994 -163.5244
10950.544327 59.700 -35.3359
11029.896485 59.892 96.2197
11109.823662 60.504 -131.9004
11190.330024 61.077 -5.4844
11271.419768 61.501 122.0654
11353.097122 61.430 -115.7285
11435.366344 61.020 11.2402
11518.231722 60.942 140.6631
11601.697577 61.186 -90.8135
11685.768261 61.282 39.5439
11770.448155 60.961 165.3252
11855.741674 60.269 -65.8994
11941.653265 59.616 66.8818
12028.187408 59.067 -160.2119
12115.348612 58.394 -23.2744
12203.141422 57.495 112.2510
12291.570415 56.363 -107.4561
12380.640201 55.319 39.0352
12470.355424 54.753 -165.1895
12560.720760 54.992 -1.3545
12651.740920 55.525 161.9121
12743.420650 55.886 -52.8184
12835.764729 55.998 91.3555
12928.777972 55.555 -132.0361
13022.465227 54.974 10.2842
13116.831378 54.756 162.4951
13211.881345 54.532 -39.8682
13307.620084 54.085 115.4033
13404.052584 53.771 -90.8604
13501.183875 53.498 62.7227
13599.019019 53.522 -132.2734
13697.563116 54.363 31.1211
13796.821305 55.287 -171.8906
13896.798760 55.500 -19.6191
13997.500692 55.153 132.9766
14098.932352 54.541 -72.7676
14201.099028 53.934 88.4141
14304.006046 53.662 -106.5391
14407.658770 53.595 58.3379
14512.062604 53.497 -138.6836
14617.222992 53.173 23.3457
14723.145416 52.752 -170.9473
14829.835397 52.572 3.9512
14937.298497 52.589 -175.7812
15045.540320 52.753 -0.3203
15154.566507 53.240 171.2793
15264.382743 53.791 -17.5840
15374.994752 53.988 153.3633
15486.408302 53.515 -35.6367
15598.629201 52.586 138.0254
15711.663298 51.617 -46.0703
15825.516487 50.825 132.5625
15940.194703 49.966 -43.2168
16055.703925 49.258 147.6797
16172.050174 49.063 -17.0566
16289.239516 49.419 177.4941
16407.278061 49.956 8.7832
16526.171961 50.637 -158.7363
16645.927415 51.644 28.8809
16766.550667 52.257 -149.4707
16888.048005 52.056 32.4629
17010.425762 51.263 -137.0801
17133.690320 50.341 64.1309
17257.848103 49.943 -92.6992
17382.905584 50.181 107.1641
17508.869284 50.388 -55.4629
17635.745768 50.411 142.0898
17763.541652 50.446 -20.9707
17892.263597 50.435 174.4531
18021.918315 50.108 9.4961
18152.512564 49.232 -153.0908
18284.053153 47.831 51.7422
18416.546939 46.115 -97.0273
18550.000830 44.349 118.9844
18684.421783 43.221 -16.4053
18819.816805 43.004 -149.9082
18956.192956 42.916 75.9941
19093.557344 42.707 -66.2764
19231.917131 42.506 146.3955
19371.279531 42.074 -2.3340
19511.651807 41.148 -147.9297
19653.041280 39.661 72.1387
19795.455318 37.969 -66.0068
19938.901348 36.640 158.8906
