* Measurement data measured by REW V5.31
* Source: Scarlett 2i4 USB, MICROPHONE, R, volume: no control. Timing signal peak level -29.0 dBFS, measurement signal peak level -19.4 dBFS
* Format: 512k Log Swept Sine, 1 sweep at -18.0 dBFS using an acoustic timing reference
* Dated: Apr 16, 2024 8:25:13 AM
* REW Settings:
*  C-weighting compensation: Off
*  Target level: 75.0 dB
* Note: ; Delay -0.9090 ms (-312 mm, -(1 ft 0.28 in)) using estimated IR delay relative to Acoustic reference played from SPEAKER L with no timing offset
* Measurement: rug-p1-c
* Smoothing: 1/48 octave
* Frequency Step: 96 ppo
* Start Frequency: 10.093689 Hz
*
* Freq(Hz) SPL(dB) Phase(degrees)
10.093689 27.840 32.6407
10.166832 27.908 30.5017
10.240505 27.991 28.2617
10.314712 28.076 26.0016
10.389457 28.158 23.8004
10.464743 28.224 21.7050
10.540575 28.264 19.5782
10.616956 28.288 17.4656
10.693891 28.301 15.4678
10.771383 28.305 13.6976
10.849437 28.296 12.1258
10.928057 28.276 10.6950
11.007246 28.260 9.4571
11.087009 28.265 8.4812
11.167350 28.293 7.8503
11.248273 28.337 7.5514
11.329783 28.417 7.4795
11.411883 28.556 7.5257
11.494578 28.770 7.6865
11.577873 29.053 8.1146
11.661771 29.398 8.5424
11.746277 29.800 8.6973
11.831395 30.261 8.4962
11.917130 30.788 8.2188
12.003487 31.356 7.6767
12.090469 31.935 6.6830
12.178081 32.513 5.2102
12.266329 33.102 3.4944
12.355216 33.684 1.5307
12.444747 34.239 -0.7244
12.534926 34.763 -3.3176
12.625760 35.260 -6.1361
12.717251 35.721 -9.0546
12.809406 36.140 -12.0289
12.902228 36.515 -15.2399
12.995723 36.847 -18.5611
13.089895 37.131 -21.7935
13.184750 37.365 -24.9222
13.280292 37.549 -28.1897
13.376526 37.683 -31.3708
13.473458 37.766 -34.2185
13.571093 37.794 -36.9185
13.669434 37.773 -39.4958
13.768489 37.711 -41.6963
13.868261 37.609 -43.3536
13.968756 37.466 -44.6242
14.069979 37.316 -45.4186
14.171936 37.189 -45.5820
14.274632 37.077 -44.9977
14.378072 37.016 -43.8565
14.482261 37.061 -42.4415
14.587206 37.231 -40.6013
14.692910 37.508 -38.5967
14.799381 37.880 -37.0321
14.906624 38.352 -35.9770
15.014643 38.905 -35.3065
15.123446 39.476 -35.3214
15.233036 40.034 -36.0962
15.343421 40.585 -37.3793
15.454606 41.095 -39.0823
15.566596 41.542 -41.2527
15.679398 41.932 -43.8354
15.793018 42.255 -46.5397
15.907460 42.503 -49.3775
16.022732 42.678 -52.4647
16.138840 42.778 -55.4332
16.255788 42.801 -58.2684
16.373585 42.749 -61.1190
16.492234 42.629 -63.6169
16.611744 42.438 -65.7298
16.732119 42.187 -67.5238
16.853367 41.901 -68.7393
16.975494 41.579 -69.2556
17.098505 41.255 -69.1389
17.222408 40.980 -68.3905
17.347209 40.757 -66.8351
17.472914 40.623 -64.8652
17.599530 40.612 -62.7514
17.727063 40.712 -60.4789
17.855521 40.891 -58.5562
17.984909 41.146 -57.0704
18.115235 41.438 -55.9725
18.246506 41.723 -55.3097
18.378727 41.997 -55.0586
18.511907 42.244 -54.9388
18.646052 42.453 -54.9266
18.781169 42.635 -54.9397
18.917265 42.804 -54.7370
19.054347 42.964 -54.3764
19.192423 43.144 -53.8359
19.331499 43.359 -53.0572
19.471583 43.617 -52.1931
19.612682 43.931 -51.3871
19.754804 44.299 -50.6271
19.897956 44.705 -50.1599
20.042144 45.146 -49.9506
20.187378 45.601 -50.0400
20.333664 46.056 -50.4523
20.481010 46.506 -51.1060
20.629424 46.941 -51.9604
20.778913 47.361 -52.9875
20.929486 47.769 -54.1189
21.081150 48.165 -55.3432
21.233912 48.552 -56.6630
21.387782 48.933 -58.0585
21.542767 49.305 -59.5603
21.698874 49.666 -61.1866
21.856113 50.008 -62.9059
22.014492 50.325 -64.7463
22.174018 50.610 -66.6358
22.334700 50.854 -68.5074
22.496546 51.057 -70.3287
22.659566 51.219 -71.8983
22.823766 51.347 -73.2412
22.989157 51.460 -74.1259
23.155745 51.574 -74.6002
23.323542 51.726 -74.6134
23.492554 51.933 -74.2308
23.662790 52.222 -73.7197
23.834261 52.594 -73.1464
24.006973 53.033 -72.9071
24.180938 53.521 -72.9672
24.356163 54.017 -73.5145
24.532658 54.503 -74.4003
24.710431 54.950 -75.5384
24.889493 55.359 -76.7588
25.069853 55.729 -77.8511
25.251519 56.086 -78.7256
25.434502 56.457 -79.2177
25.618811 56.882 -79.4993
25.804456 57.389 -79.5473
25.991445 57.991 -79.8873
26.179790 58.682 -80.5392
26.369500 59.422 -82.0227
26.560584 60.178 -84.2064
26.753053 60.902 -87.2854
26.946917 61.561 -90.9858
27.142185 62.130 -95.3311
27.338869 62.592 -99.9346
27.536977 62.938 -104.8222
27.736522 63.166 -109.5670
27.937512 63.286 -114.1231
28.139959 63.308 -118.2157
28.343872 63.267 -121.6453
28.549264 63.192 -124.3146
28.756143 63.145 -126.1195
28.964522 63.169 -127.2384
29.174411 63.312 -127.8073
29.385821 63.587 -128.4101
29.598763 63.982 -129.2474
29.813248 64.456 -130.7417
30.029287 64.960 -132.9413
30.246891 65.456 -135.8324
30.466073 65.910 -139.3328
30.686842 66.304 -143.2598
30.909212 66.627 -147.5486
31.133193 66.875 -151.9992
31.358797 67.044 -156.5181
31.586035 67.135 -161.0518
31.814921 67.150 -165.4163
32.045465 67.091 -169.5271
32.277680 66.964 -173.2954
32.511577 66.784 -176.5246
32.747169 66.576 -179.1347
32.984469 66.367 178.9448
33.223488 66.198 177.7352
33.464239 66.108 177.0226
33.706735 66.113 176.5946
33.950987 66.217 176.1847
34.197010 66.396 175.5094
34.444816 66.620 174.5287
34.694417 66.867 173.2654
34.945827 67.127 171.8079
35.199059 67.408 170.2538
35.454126 67.725 168.5532
35.711041 68.091 166.5940
35.969818 68.502 164.1981
36.230470 68.934 161.1098
36.493011 69.348 157.2511
36.757455 69.704 152.6642
37.023814 69.964 147.4393
37.292104 70.100 141.7756
37.562338 70.098 136.0016
37.834530 69.956 130.3797
38.108695 69.690 125.1515
38.384846 69.327 120.5595
38.662999 68.908 116.7914
38.943167 68.486 113.8380
39.225365 68.103 111.5063
39.509608 67.780 109.5192
39.795911 67.509 107.5913
40.084289 67.264 105.5302
40.374756 67.004 103.3165
40.667328 66.703 101.1153
40.962020 66.350 99.1877
41.258848 65.960 97.7794
41.557827 65.569 97.0587
41.858972 65.220 97.0531
42.162299 64.957 97.6064
42.467824 64.806 98.4059
42.775564 64.764 99.0958
43.085533 64.801 99.4209
43.397749 64.879 99.3105
43.712227 64.966 98.8666
44.028983 65.052 98.2773
44.348036 65.148 97.7013
44.669400 65.278 97.1683
44.993093 65.465 96.5316
45.319131 65.710 95.5177
45.647532 65.990 93.8609
45.978313 66.258 91.4368
46.311491 66.466 88.3109
46.647083 66.580 84.7027
46.985107 66.581 80.9113
47.325581 66.476 77.2389
47.668521 66.285 73.9258
48.013947 66.041 71.0989
48.361876 65.778 68.7516
48.712326 65.519 66.7711
49.065315 65.273 65.0139
49.420863 65.035 63.3859
49.778987 64.797 61.8781
50.139706 64.559 60.5392
50.503039 64.327 59.4146
50.869005 64.112 58.4944
51.237623 63.924 57.7082
51.608912 63.761 56.9727
51.982891 63.620 56.2503
52.359580 63.497 55.5622
52.739000 63.400 54.9287
53.121168 63.339 54.2805
53.506106 63.316 53.4289
53.893833 63.310 52.1559
54.284370 63.280 50.3639
54.677737 63.176 48.1931
55.073955 62.968 46.0236
55.473043 62.663 44.3530
55.875024 62.311 43.5884
56.279917 61.987 43.8270
56.687745 61.760 44.7509
57.098527 61.649 45.8104
57.512287 61.628 46.6253
57.929045 61.657 47.1555
58.348822 61.716 47.5311
58.771642 61.804 47.8480
59.197525 61.922 48.1122
59.626495 62.071 48.3300
60.058573 62.254 48.5446
60.493782 62.483 48.7605
60.932145 62.763 48.9083
61.373685 63.098 48.9686
61.818424 63.498 49.0531
62.266386 64.005 49.1770
62.717593 64.647 48.9373
63.172071 65.385 47.6047
63.629842 66.114 44.8084
64.090930 66.736 40.9534
64.555359 67.233 36.9673
65.023154 67.687 33.6984
65.494339 68.234 31.3487
65.968938 68.987 29.3956
66.446976 69.985 27.0885
66.928478 71.214 23.6806
67.413469 72.613 18.3517
67.901975 74.053 10.4004
68.394021 75.367 -0.4532
68.889632 76.411 -13.7250
69.388835 77.100 -28.4649
69.891655 77.407 -43.7690
70.398118 77.365 -58.5043
70.908252 77.058 -71.9762
71.422083 76.621 -83.6958
71.939636 76.188 -93.8346
72.460941 75.845 -103.0286
72.986023 75.604 -111.8602
73.514909 75.440 -120.5942
74.047629 75.343 -129.2234
74.584208 75.332 -137.7906
75.124676 75.427 -146.6054
75.669061 75.614 -156.1703
76.217390 75.822 -167.0013
76.769692 75.938 -179.2245
77.325997 75.847 167.4563
77.886333 75.470 153.8842
78.450730 74.790 141.0427
79.019216 73.870 129.9783
79.591822 72.853 121.3732
80.168577 71.928 115.0696
80.749512 71.242 110.1570
81.334656 70.839 105.5460
81.924040 70.682 100.6482
82.517696 70.725 95.2877
83.115653 70.954 89.4200
83.717943 71.380 82.8519
84.324598 71.996 74.9626
84.935649 72.716 64.9843
85.551128 73.396 52.6705
86.171066 73.917 38.5452
86.795497 74.251 23.5742
87.424453 74.468 8.5918
88.057967 74.674 -6.2087
88.696071 74.929 -21.2352
89.338800 75.199 -36.9262
89.986185 75.404 -53.2433
90.638262 75.499 -69.6644
91.295065 75.526 -85.5708
91.956626 75.602 -100.9271
92.622982 75.803 -116.8621
93.294166 76.005 -135.0249
93.970214 75.911 -156.0145
94.651161 75.213 -178.8066
95.337042 73.680 159.0857
96.027894 71.216 142.6702
96.723752 68.143 143.6959
97.424652 65.905 164.9084
98.130631 65.611 170.6150
98.841726 65.946 164.7900
99.557974 66.014 157.6934
100.279412 65.795 152.0447
101.006078 65.441 148.1746
101.738010 65.103 145.8519
102.475245 64.885 144.3828
103.217823 64.834 143.2656
103.965782 64.991 142.2808
104.719161 65.367 140.4897
105.477999 65.865 136.8196
106.242336 66.364 131.5139
107.012212 66.863 125.4253
107.787666 67.434 118.5387
108.568740 68.123 110.0951
109.355474 68.912 99.1040
110.147909 69.700 84.3093
110.946086 70.297 64.9922
111.750047 70.547 41.7273
112.559834 70.440 15.6444
113.375489 70.099 -12.0958
114.197055 69.694 -40.4281
115.024574 69.341 -68.0502
115.858089 69.056 -93.5675
116.697645 68.767 -116.1077
117.543284 68.381 -134.9353
118.395051 67.906 -149.1664
119.252990 67.521 -158.3691
120.117147 67.438 -163.8779
120.987565 67.702 -167.9579
121.864291 68.214 -171.8951
122.747370 68.883 -176.0297
123.636848 69.693 179.6836
124.532771 70.693 175.1826
125.435187 71.897 169.4443
126.344142 73.162 160.6294
127.259684 74.227 147.7714
128.181860 74.861 131.5764
129.110718 74.962 113.6951
130.046308 74.547 95.4225
130.988677 73.673 77.1823
131.937875 72.410 59.3572
132.893951 71.024 42.6541
133.856956 70.273 25.4813
134.826938 70.875 1.7502
135.803950 72.346 -31.3491
136.788041 73.818 -68.3441
137.779264 74.901 -103.1835
138.777669 75.473 -133.8879
139.783309 75.435 -160.3062
140.796237 74.763 178.8878
141.816504 73.720 165.9877
142.844165 72.814 159.7369
143.879273 72.287 155.3195
144.921881 72.008 151.5281
145.972045 71.911 149.2288
147.029819 72.019 147.5762
148.095257 72.263 145.2489
149.168417 72.529 142.2955
150.249353 72.782 139.4874
151.338121 73.111 137.6826
152.434780 73.730 137.4299
153.539385 74.798 137.0735
154.651995 76.156 133.0585
155.772667 77.441 123.6937
156.901460 78.388 110.0555
158.038432 78.859 93.1447
159.183644 78.689 73.4116
160.337154 77.716 53.0132
161.499023 75.991 34.7379
162.669312 73.783 17.3190
163.848081 71.368 -5.3318
165.035392 69.155 -46.1498
166.231306 68.046 -126.3743
167.435887 68.240 -179.2080
168.649196 68.717 154.5793
169.871298 68.969 140.3511
171.102255 69.173 134.4639
172.342133 69.500 131.5415
173.590995 69.773 127.6741
174.848907 69.827 124.4204
176.115934 69.877 125.3357
177.392143 70.510 132.1362
178.677599 72.050 139.8306
179.972371 74.068 141.1958
181.276525 76.004 135.6880
182.590129 77.541 124.9036
183.913252 78.513 110.5356
185.245964 78.942 95.4199
186.588332 78.976 80.2466
187.940428 78.541 62.6785
189.302322 77.298 43.6890
190.674085 75.017 29.2048
192.055788 71.911 26.2471
193.447503 69.385 52.9846
194.849303 70.157 120.1387
196.261262 72.706 121.4858
197.683452 74.754 108.0105
199.115948 76.040 92.5361
200.558824 76.817 77.3176
202.012156 77.134 59.4082
203.476019 76.640 36.9753
204.950490 75.011 17.7642
206.435646 72.754 36.3477
207.931564 71.394 60.1350
209.438322 70.811 44.5938
210.955998 69.564 23.2046
212.484672 67.549 13.4229
214.024424 66.615 129.0530
215.575333 67.938 126.2720
217.137481 69.933 118.9473
218.710948 71.775 112.8325
220.295818 73.176 103.6443
221.892172 73.897 91.3801
223.500094 74.224 83.8811
225.119668 74.756 80.0615
226.750978 75.332 70.7109
228.394109 75.404 57.0972
230.049147 74.781 43.4727
231.716178 73.474 32.0610
233.395289 71.601 25.4036
235.086567 69.502 24.0403
236.790102 68.308 27.4958
238.505980 69.988 48.2207
240.234293 73.260 130.9756
241.975130 75.700 113.1318
243.728581 76.510 83.3779
245.494739 75.795 59.0959
247.273695 74.162 46.7952
249.065542 72.848 52.4460
250.870374 73.429 68.5945
252.688284 75.154 65.5530
254.519367 76.459 48.3201
256.363720 76.813 24.5544
258.221437 76.100 -3.4724
260.092616 74.367 -36.3948
261.977354 72.439 -103.6580
263.875750 72.693 135.8372
265.787903 74.777 105.3762
267.713911 76.252 77.0330
269.653877 76.272 49.3962
271.607900 74.974 32.7808
273.576083 73.505 40.2437
275.558528 73.275 47.1536
277.555338 73.857 41.5254
279.566619 74.631 35.3501
281.592474 75.484 27.3721
283.633009 76.130 14.1960
285.688331 76.231 -3.3298
287.758546 75.606 -23.0132
289.843763 74.101 -43.6060
291.944090 71.599 -60.9480
294.059638 68.462 -65.5483
296.190515 66.471 24.0352
298.336833 67.425 33.2065
300.498705 69.330 22.3484
302.676243 70.653 6.2449
304.869559 70.965 -13.5071
307.078770 70.156 -30.6985
309.303989 68.986 -32.2615
311.545334 69.174 -20.2275
313.802919 70.526 -24.8386
316.076865 71.397 -44.4019
318.367288 71.264 -66.4541
320.674309 70.247 -86.2854
322.998047 68.565 -99.7236
325.338624 66.942 -100.5081
327.696162 66.779 -95.6384
330.070783 68.265 -95.8259
332.462612 70.065 -108.2942
334.871773 71.335 -128.4307
337.298392 71.830 -151.7046
339.742595 71.403 -174.6792
342.204510 70.199 169.1064
344.684265 68.753 159.9797
347.181989 67.535 154.5361
349.697813 67.123 157.5378
352.231868 68.112 166.5730
354.784285 69.602 161.3853
357.355198 70.445 145.6304
359.944741 70.412 129.3174
362.553049 69.777 118.1772
365.180258 69.441 121.6921
367.826505 70.144 124.2351
370.491927 70.999 112.2532
373.176665 71.279 96.1016
375.880856 70.929 79.7991
378.604644 70.072 64.2964
381.348169 68.803 47.3730
384.111575 67.008 26.8967
386.895006 64.770 9.1008
389.698607 63.107 108.1919
392.522524 62.716 96.3286
395.366904 62.406 64.9912
398.231895 61.961 20.8667
401.117648 62.766 -152.2561
404.024312 64.288 173.3076
406.952038 65.073 147.8628
409.900981 65.032 131.3591
412.871292 64.781 121.9890
415.863128 65.149 129.4260
418.876643 66.461 140.1865
421.911996 67.643 128.4207
424.969344 68.231 114.5781
428.048847 68.146 98.9529
431.150666 67.233 89.2881
434.274961 66.169 87.2227
437.421897 65.130 73.6111
440.591636 63.767 63.2407
443.784345 63.012 104.0142
447.000189 63.361 111.2122
450.239337 63.830 122.2737
453.501956 64.405 134.9055
456.788219 65.483 147.2644
460.098294 67.320 179.3706
463.432356 68.891 160.7332
466.790578 69.402 137.9536
470.173135 69.680 130.3831
473.580203 71.209 143.7104
477.011961 73.075 136.5876
480.468586 74.026 114.4473
483.950259 74.147 93.1519
487.457163 73.734 72.2854
490.989478 72.735 50.1472
494.547390 71.164 26.7122
498.131084 69.592 -2.9331
501.740748 69.753 -101.9353
505.376568 71.781 156.7429
509.038735 73.645 114.2664
512.727439 74.243 74.4424
516.442874 73.149 42.5225
520.185232 70.965 46.1726
523.954708 69.816 54.4729
527.751500 70.876 44.1919
531.575805 72.376 17.8318
535.427822 72.860 -21.6011
539.307753 71.985 -67.1116
543.215800 69.767 -113.7620
547.152165 66.602 -138.1689
551.117055 63.850 -71.0464
555.110677 62.226 -107.7761
559.133237 61.130 -118.4163
563.184947 61.208 -92.3884
567.266018 62.247 -90.0623
571.376661 63.116 -125.0430
575.517092 63.979 -154.7827
579.687526 65.139 166.1426
583.888181 66.070 96.6917
588.119275 66.390 6.9482
592.381030 66.051 -52.9038
596.673667 66.103 -75.4854
600.997410 67.609 -67.2129
605.352485 69.374 -83.7783
609.739119 70.791 -103.3594
614.157540 72.105 -120.6758
618.607979 72.744 -143.5737
623.090667 72.379 -162.9116
627.605839 71.884 -165.6484
632.153730 71.794 -174.2988
636.734576 71.605 177.5933
641.348617 72.292 -164.2129
645.996094 74.069 -168.0220
650.677248 75.673 173.3760
655.392323 76.410 149.6694
660.141566 76.119 125.8354
664.925224 75.042 109.2827
669.743546 74.039 98.6045
674.596784 73.685 86.3198
679.485191 73.638 68.1338
684.409020 73.272 46.0469
689.368530 72.530 23.0352
694.363979 71.388 -2.6138
699.395626 69.562 -27.1108
704.463736 67.259 -37.9575
709.568570 65.659 -38.2441
714.710396 64.828 -48.1543
719.889483 64.169 -50.4497
725.106099 64.941 -38.3003
730.360516 66.700 -42.9331
735.653010 68.228 -58.5620
740.983855 69.553 -73.4409
746.353329 71.022 -83.5737
751.761713 72.219 -100.7734
757.209288 72.131 -123.0376
762.696339 71.159 -125.0469
768.223151 70.645 -131.4551
773.790013 71.231 -143.7754
779.397214 72.028 -166.8145
785.045047 71.332 160.9492
790.733808 69.266 165.9336
796.463791 68.232 -164.5547
802.235296 69.108 150.7793
808.048623 69.943 75.2559
813.904077 69.925 3.9111
819.801961 69.809 -32.9004
825.742584 70.273 -60.4355
831.726255 70.221 -91.9600
837.753287 69.744 -107.3623
843.823992 70.659 -77.3057
849.938689 71.935 -93.1890
856.097695 71.646 -127.6772
862.301332 70.393 -125.9102
868.549922 69.982 -53.2446
874.843793 70.115 -74.7095
881.183272 70.162 -87.4697
887.568689 70.674 -93.3267
894.000378 72.035 -98.3628
900.478673 73.353 -117.0801
907.003913 73.585 -146.1685
913.576437 72.473 -174.2974
920.196588 70.981 -138.9824
926.864712 69.768 -122.7168
933.581156 68.210 -142.0269
940.346270 67.258 -145.2744
947.160407 67.832 -150.1841
954.023921 68.126 171.7500
960.937172 67.526 104.1602
967.900519 67.454 23.4634
974.914325 67.681 -21.0942
981.978956 67.632 -49.3628
989.094780 67.170 -73.1411
996.262169 66.608 -89.7393
1003.481495 67.411 -48.3643
1010.753136 69.479 -12.7295
1018.077470 70.983 -31.5630
1025.454879 71.746 -50.1260
1032.885748 71.978 -66.5054
1040.370463 71.875 -74.7349
1047.909417 71.915 -83.2119
1055.503000 71.981 -97.4917
1063.151610 71.949 -104.7798
1070.855645 71.814 -109.1997
1078.615506 71.234 -130.3735
1086.431599 70.768 -138.3359
1094.304330 70.543 -36.8750
1102.234110 69.658 -62.7085
1110.221353 68.323 -72.8936
1118.266475 68.055 -69.5645
1126.369895 69.135 -70.6299
1134.532035 70.157 -81.6553
1142.753322 70.531 -95.1768
1151.034184 70.197 -114.1084
1159.375052 69.025 -128.3184
1167.776361 67.920 -131.6948
1176.238550 67.742 -164.8643
1184.762060 68.320 104.1587
1193.347334 69.120 19.6855
1201.994821 69.027 -20.1494
1210.704971 68.382 -36.9419
1219.478238 68.031 -53.2842
1228.315080 66.896 -71.2231
1237.215957 64.899 -54.9204
1246.181334 64.707 -11.1743
1255.211678 66.542 -5.6523
1264.307459 67.724 -21.9111
1273.469152 67.846 -31.6533
1282.697235 68.169 -30.2681
1291.992188 68.898 -36.5093
1301.354495 69.368 -46.1548
1310.784647 69.396 -60.0142
1320.283132 68.436 -78.7471
1329.850448 66.475 -92.8931
1339.487093 64.634 -88.5137
1349.193569 64.519 -66.2871
1358.970381 65.240 -73.9766
1368.818041 65.471 -1.4604
1378.737061 65.626 5.2070
1388.727958 66.422 -14.8188
1398.791253 66.795 -52.4785
1408.927471 65.997 -113.2251
1419.137140 65.104 92.1245
1429.420793 65.541 59.7070
1439.778965 66.518 38.9707
1450.212197 66.579 17.8110
1460.721033 65.402 6.0283
1471.306019 64.304 13.8198
1481.967709 64.229 18.2373
1492.706658 64.310 14.4004
1503.523426 64.287 17.7227
1514.418576 64.998 28.8838
1525.392678 66.591 27.6392
1536.446302 68.002 41.1060
1547.580025 68.630 47.8281
1558.794428 69.175 36.5098
1570.090095 69.821 18.9736
1581.467615 69.983 -3.1021
1592.927581 69.882 -26.8076
1604.470591 69.444 -62.5020
1616.097246 68.555 -108.7900
1627.808153 68.527 -155.5576
1639.603922 69.718 169.3164
1651.485168 71.034 142.3101
1663.452510 72.101 119.4624
1675.506573 72.591 96.0938
1687.647984 72.490 76.6250
1699.877377 72.298 59.7803
1712.195390 72.225 48.8706
1724.602663 72.274 42.5747
1737.099845 71.680 24.1865
1749.687587 70.550 12.5474
1762.366544 69.800 -6.6714
1775.137379 69.598 -12.9341
1788.000756 70.082 -134.8540
1800.957346 70.463 170.6826
1814.007826 70.371 137.1675
1827.152874 70.244 121.1221
1840.393177 70.417 117.2734
1853.729425 70.096 100.6577
1867.162312 69.073 82.5005
1880.692540 68.200 70.2715
1894.320813 68.553 140.6143
1908.047843 69.996 151.7329
1921.874344 71.474 144.6157
1935.801038 72.430 129.9668
1949.828650 73.086 113.0410
1963.957912 73.076 90.5513
1978.189561 72.054 70.9077
1992.524338 71.249 45.1250
2006.962991 71.068 -3.7139
2021.506272 71.776 -65.7568
2036.154940 73.139 -114.5659
2050.909758 74.233 -154.8213
2065.771495 74.439 171.2827
2080.740927 74.443 148.9458
2095.818833 74.737 122.8970
2111.006001 74.314 73.4883
2126.303220 73.447 -61.9297
2141.711290 73.720 -127.2183
2157.231013 74.645 -166.4473
2172.863198 75.640 158.5337
2188.608660 76.864 119.6113
2204.468221 77.150 58.4902
2220.442706 75.950 -15.3398
2236.532950 74.520 -67.8252
2252.739789 73.705 -91.8989
2269.064070 73.542 -82.1216
2285.506644 74.135 -96.2686
2302.068367 74.906 -118.2852
2318.750104 74.798 -145.2817
2335.552723 73.960 -166.6626
2352.477101 73.646 176.8457
2369.524119 74.353 158.1035
2386.694668 75.059 69.3862
2403.989641 75.105 -25.2700
2421.409941 74.503 -64.0483
2438.956476 72.920 -88.3945
2456.630160 70.571 -90.9082
2474.431915 69.180 -85.5356
2492.362668 70.184 -72.3062
2510.423356 72.485 -68.5986
2528.614918 73.566 -88.1104
2546.938304 72.702 -99.8164
2565.394469 71.438 -71.2695
2583.984375 71.282 -65.9478
2602.708991 71.344 -83.8032
2621.569293 71.077 -107.0459
2640.566265 70.854 -135.2080
2659.700897 71.348 20.7524
2678.974186 72.628 5.8550
2698.387137 73.672 -10.4390
2717.940763 73.535 -32.5322
2737.636082 72.151 -48.3330
2757.474121 70.800 -36.9951
2777.455915 71.503 -12.7407
2797.582506 73.008 -15.4204
2817.854942 73.417 -21.3633
2838.274281 72.439 -23.4404
2858.841586 70.932 -7.7930
2879.557931 70.567 3.3872
2900.424394 70.881 -2.9980
2921.442065 70.871 9.2095
2942.612039 71.137 34.6450
2963.935418 71.931 31.5620
2985.413316 72.321 16.5903
3007.046852 71.518 5.0356
3028.837153 70.342 18.0488
3050.785356 70.339 41.4419
3072.892604 70.865 55.8608
3095.160050 71.447 50.6523
3117.588856 71.825 54.9800
3140.180190 71.533 73.2915
3162.935230 70.989 72.5571
3185.855163 70.474 65.7700
3208.941182 69.652 64.8892
3232.194493 69.074 73.6328
3255.616307 68.723 67.4663
3279.207844 67.526 60.2021
3302.970336 66.459 83.1133
3326.905021 67.129 140.8496
3351.013146 68.837 150.6084
3375.295969 70.029 134.7500
3399.754755 70.004 114.0356
3424.390779 68.924 98.6851
3449.205326 68.095 129.3770
3474.199690 68.212 175.1519
3499.375173 68.392 178.2383
3524.733088 68.637 167.2778
3550.274757 68.781 159.9087
3576.001511 69.103 -171.6289
3601.914692 69.501 -146.7734
3628.015651 69.806 -159.2803
3654.305748 69.499 -169.3125
3680.786354 69.154 -144.2969
3707.458849 69.802 -66.6616
3734.324624 70.304 -83.2769
3761.385080 70.063 -92.7217
3788.641627 70.033 -70.3188
3816.095686 70.653 -68.3613
3843.748688 70.917 -64.2544
3871.602076 70.892 -54.2192
3899.657300 70.396 -61.7100
3927.915825 69.651 -69.3384
3956.379122 69.620 19.4390
3985.048676 70.584 14.3296
4013.925981 71.351 -4.3667
4043.012544 70.930 -16.7197
4072.309879 69.893 1.4731
4101.819515 69.640 25.5054
4131.542990 69.714 29.0439
4161.481854 69.372 25.0234
4191.637667 68.633 26.4023
4222.012001 68.629 48.1704
4252.606441 69.631 56.7407
4283.422580 70.396 52.5850
4314.462026 70.579 58.0923
4345.726396 70.946 93.0366
4377.217321 71.862 98.9976
4408.936442 72.057 90.3564
4440.885413 71.771 84.1206
4473.065899 72.139 109.4424
4505.479579 73.003 131.4404
4538.128141 73.055 117.3340
4571.013288 72.069 110.0518
4604.136735 71.272 139.8125
4637.500207 71.260 156.1602
4671.105446 71.162 150.1597
4704.954201 70.590 158.3784
4739.048239 70.426 -173.0806
4773.389336 70.685 -173.9478
4807.979283 70.172 176.2310
4842.819883 69.010 -168.2656
4877.912952 68.537 -134.1138
4913.260320 68.388 -136.3315
4948.863830 67.754 -130.6763
4984.725337 67.138 -117.5620
5020.846712 67.320 -104.0083
5057.229836 67.838 -95.4658
5093.876609 68.208 -79.5986
5130.788938 68.545 -50.3550
5167.968750 68.838 -51.8359
5205.417982 68.929 -50.8428
5243.138586 68.921 -16.8311
5281.132530 68.989 -4.3433
5319.401793 68.567 -9.5298
5357.948371 68.511 22.6299
5396.774274 69.642 46.6885
5435.881525 70.068 40.5117
5475.272163 69.330 45.1187
5514.948243 68.010 71.9697
5554.911831 67.393 86.1191
5595.165012 67.457 101.5537
5635.709884 67.540 119.4102
5676.548561 67.472 121.3096
5717.683172 66.987 146.0059
5759.115861 67.144 -177.7231
5800.848789 68.112 -173.4385
5842.884130 68.634 -172.8325
5885.224077 68.695 -167.3667
5927.870837 68.828 -157.0781
5970.826633 69.327 -132.9341
6014.093704 70.346 -117.0645
6057.674306 71.017 -116.3296
6101.570711 70.674 -118.1475
6145.785208 70.114 -94.1060
6190.320101 70.346 -70.4365
6235.177712 70.718 -63.9478
6280.360380 70.626 -64.4766
6325.870460 69.936 -59.5269
6371.710325 69.391 -33.8735
6417.882365 69.963 -2.9873
6464.388986 70.313 -5.2529
6511.232613 69.318 -12.5366
6558.415689 67.981 3.9087
6605.940673 67.841 51.8018
6653.810042 68.172 57.9204
6702.026292 68.125 56.1138
6750.591937 68.065 67.1743
6799.509509 68.655 118.4771
6848.781558 69.364 128.1240
6898.410653 69.307 123.9771
6948.399380 68.937 135.1372
6998.750346 68.695 176.9873
7049.466176 68.285 -161.7847
7100.549514 67.740 -162.9365
7152.003023 67.362 -142.4473
7203.829385 67.868 -89.3330
7256.031302 68.275 -87.9990
7308.611496 68.157 -81.3838
7361.572708 68.234 -63.5103
7414.917698 68.852 -32.8213
7468.649249 69.681 -16.2812
7522.770160 69.998 -13.3159
7577.283253 70.014 -0.5581
7632.191371 70.144 15.7549
7687.497376 70.076 30.1489
7743.204151 69.787 40.1284
7799.314600 69.350 55.1289
7855.831649 69.192 77.1079
7912.758244 69.044 90.5322
7970.097352 68.820 103.4536
8027.851962 68.589 117.8120
8086.025087 68.757 146.0234
8144.619758 69.003 160.3750
8203.639030 68.576 173.2061
8263.085980 67.917 -169.7964
8322.963708 67.617 -146.2734
8383.275334 67.652 -131.4790
8444.024002 67.209 -115.1436
8505.212881 66.880 -76.8359
8566.845160 66.972 -54.2852
8628.924051 66.613 -45.5688
8691.452792 66.175 -15.6694
8754.434642 66.371 18.1372
8817.872884 66.491 33.0552
8881.770826 66.864 62.1416
8946.131799 67.710 93.3540
9010.959157 68.207 105.0625
9076.256282 68.278 122.4375
9142.026576 68.466 146.3789
9208.273470 68.448 159.8643
9275.000415 68.080 178.8237
9342.210891 68.154 -153.9634
9409.908403 68.608 -134.6729
9478.096478 68.976 -115.3667
9546.778672 69.613 -87.2075
9615.958566 70.132 -71.7598
9685.639765 70.182 -60.3242
9755.825904 69.896 -44.0625
9826.520640 69.572 -26.3193
9897.727659 69.036 -7.6553
9969.450674 68.658 14.5239
10041.693423 68.412 37.2051
10114.459673 68.006 58.9966
10187.753217 67.703 88.7446
10261.577877 67.642 116.4761
10335.937500 67.562 140.9243
10410.835964 67.426 166.3623
10486.277173 67.444 -170.2139
10562.265060 67.495 -143.2207
10638.803587 67.482 -117.0093
10715.896743 67.392 -92.7212
10793.548548 67.184 -62.7119
10871.763050 67.138 -35.9399
10950.544327 67.361 -11.3564
11029.896485 67.710 14.3535
11109.823662 67.990 38.2090
11190.330024 68.209 61.0942
11271.419768 68.528 82.5137
11353.097122 68.571 100.8677
11435.366344 68.098 121.7505
11518.231722 67.537 147.2256
11601.697577 67.207 176.1650
11685.768261 67.081 -155.0449
11770.448155 67.032 -127.6816
11855.741674 67.054 -100.0122
11941.653265 67.435 -72.0205
12028.187408 67.882 -43.7939
12115.348612 67.751 -14.3550
12203.141422 67.112 16.2432
12291.570415 66.579 52.8867
12380.640201 66.535 84.3477
12470.355424 66.924 114.9556
12560.720760 67.537 142.7500
12651.740920 68.225 169.6313
12743.420650 68.799 -166.6992
12835.764729 68.778 -144.2812
12928.777972 68.452 -115.6118
13022.465227 68.284 -88.9668
13116.831378 68.230 -61.5215
13211.881345 68.090 -36.5659
13307.620084 67.743 -8.0835
13404.052584 67.542 23.1777
13501.183875 67.324 52.6841
13599.019019 66.923 80.3740
13697.563116 66.271 111.2183
13796.821305 65.713 146.9795
13896.798760 65.033 -177.9048
13997.500692 64.474 -137.0264
14098.932352 64.300 -99.8809
14201.099028 64.493 -66.3301
14304.006046 64.785 -32.1182
14407.658770 65.051 0.8486
14512.062604 65.119 31.2520
14617.222992 65.319 62.7380
14723.145416 65.597 92.8247
14829.835397 65.776 120.2046
14937.298497 65.505 146.2798
15045.540320 64.795 176.4604
15154.566507 63.892 -149.3064
15264.382743 63.079 -110.1973
15374.994752 62.660 -66.7859
15486.408302 62.674 -26.5645
15598.629201 62.766 10.5596
15711.663298 62.978 47.0593
15825.516487 63.239 81.6665
15940.194703 63.293 114.1050
16055.703925 63.205 147.8198
16172.050174 63.110 -177.6187
16289.239516 62.824 -143.6484
16407.278061 62.403 -108.7039
16526.171961 61.982 -73.5098
16645.927415 61.509 -38.2363
16766.550667 61.003 0.1504
16888.048005 60.585 39.2227
17010.425762 60.087 79.1040
17133.690320 59.588 121.1731
17257.848103 59.251 162.0991
17382.905584 58.981 -157.9238
17508.869284 58.865 -116.1345
17635.745768 58.897 -75.4214
17763.541652 58.915 -35.9509
17892.263597 58.909 3.0325
18021.918315 58.754 40.7166
18152.512564 58.323 79.4077
18284.053153 57.754 120.1704
18416.546939 57.241 160.9839
18550.000830 56.684 -158.0532
18684.421783 55.906 -118.4502
18819.816805 54.844 -76.9492
18956.192956 53.577 -32.0393
19093.557344 52.325 14.3694
19231.917131 51.309 60.7209
19371.279531 50.343 105.7114
19511.651807 49.436 152.9021
19653.041280 48.409 -159.6670
19795.455318 47.351 -112.0388
19938.901348 46.623 -66.0950
