* Measurement data measured by REW V5.31
* Source: Scarlett 2i4 USB, MICROPHONE, R, volume: no control. Timing signal peak level -28.4 dBFS, measurement signal peak level -16.6 dBFS
* Format: 512k Log Swept Sine, 1 sweep at -18.0 dBFS using an acoustic timing reference
* Dated: Apr 16, 2024 8:41:51 AM
* REW Settings:
*  C-weighting compensation: Off
*  Target level: 75.0 dB
* Note: ; Delay -3.0275 ms (-1.038 m, -(3 ft 4.9 in)) using estimated IR delay relative to Acoustic reference played from SPEAKER L with no timing offset
* Measurement: rug-p3-rl
* Smoothing: 1/48 octave
* Frequency Step: 96 ppo
* Start Frequency: 10.093689 Hz
*
* Freq(Hz) SPL(dB) Phase(degrees)
10.093689 17.284 -74.1181
10.166832 17.903 -74.5205
10.240505 18.644 -75.2069
10.314712 19.403 -76.1399
10.389457 20.159 -77.2951
10.464743 20.876 -78.6466
10.540575 21.532 -80.1108
10.616956 22.151 -81.6828
10.693891 22.743 -83.3778
10.771383 23.314 -85.2139
10.849437 23.862 -87.1524
10.928057 24.387 -89.1602
11.007246 24.890 -91.2543
11.087009 25.374 -93.4596
11.167350 25.842 -95.7878
11.248273 26.289 -98.2008
11.329783 26.718 -100.6874
11.411883 27.127 -103.2553
11.494578 27.518 -105.9344
11.577873 27.889 -108.7320
11.661771 28.241 -111.6014
11.746277 28.571 -114.5181
11.831395 28.881 -117.5112
11.917130 29.169 -120.6442
12.003487 29.434 -123.8430
12.090469 29.678 -127.0489
12.178081 29.899 -130.2964
12.266329 30.096 -133.6837
12.355216 30.269 -137.1140
12.444747 30.419 -140.5001
12.534926 30.546 -143.9169
12.625760 30.647 -147.4430
12.717251 30.725 -150.9671
12.809406 30.781 -154.3926
12.902228 30.812 -157.8606
12.995723 30.821 -161.3714
13.089895 30.808 -164.8167
13.184750 30.775 -168.1444
13.280292 30.720 -171.4908
13.376526 30.647 -174.8031
13.473458 30.560 -177.9869
13.571093 30.456 178.9225
13.669434 30.338 175.8812
13.768489 30.211 172.9295
13.868261 30.078 170.1121
13.968756 29.938 167.3933
14.069979 29.795 164.7520
14.171936 29.653 162.1915
14.274632 29.513 159.7413
14.378072 29.376 157.3622
14.482261 29.243 155.0059
14.587206 29.116 152.6935
14.692910 28.992 150.4215
14.799381 28.869 148.1413
14.906624 28.746 145.8274
15.014643 28.620 143.4993
15.123446 28.485 141.1579
15.233036 28.335 138.7694
15.343421 28.170 136.3243
15.454606 27.980 133.8925
15.566596 27.760 131.4723
15.679398 27.508 129.0099
15.793018 27.214 126.6312
15.907460 26.873 124.3805
16.022732 26.483 122.1910
16.138840 26.035 120.2265
16.255788 25.524 118.5828
16.373585 24.948 117.2499
16.492234 24.308 116.4200
16.611744 23.593 116.2964
16.732119 22.825 117.0123
16.853367 22.048 118.7613
16.975494 21.254 121.9738
17.098505 20.547 126.7290
17.222408 20.074 132.7669
17.347209 19.852 140.0748
17.472914 19.904 147.4331
17.599530 20.267 153.8174
17.727063 20.877 158.9514
17.855521 21.561 162.2927
17.984909 22.271 164.0732
18.115235 22.967 164.5922
18.246506 23.577 163.9854
18.378727 24.103 162.4421
18.511907 24.534 160.2762
18.646052 24.860 157.4125
18.781169 25.080 154.0169
18.917265 25.191 150.3070
19.054347 25.189 145.9868
19.192423 25.069 141.4734
19.331499 24.826 136.5104
19.471583 24.453 131.1342
19.612682 23.938 125.6356
19.754804 23.276 119.5010
19.897956 22.447 113.2323
20.042144 21.443 106.3928
20.187378 20.243 99.0075
20.333664 18.826 91.2409
20.481010 17.183 82.3740
20.629424 15.287 72.7914
20.778913 13.150 61.7545
20.929486 10.823 48.8505
21.081150 8.336 35.5196
21.233912 6.137 21.6395
21.387782 4.545 15.2301
21.542767 4.414 15.2654
21.698874 6.265 20.8341
21.856113 8.922 23.8896
22.014492 11.515 21.8291
22.174018 13.925 18.0385
22.334700 15.908 11.9535
22.496546 17.518 5.4373
22.659566 18.794 -1.6165
22.823766 19.748 -9.0013
22.989157 20.406 -16.0880
23.155745 20.768 -23.4546
23.323542 20.839 -29.9626
23.492554 20.612 -36.3960
23.662790 20.077 -41.2753
23.834261 19.245 -44.9858
24.006973 18.161 -45.7236
24.180938 17.003 -42.6980
24.356163 16.238 -35.2019
24.532658 16.069 -24.4745
24.710431 16.687 -16.1842
24.889493 17.694 -11.4438
25.069853 18.579 -10.8818
25.251519 19.205 -11.7207
25.434502 19.444 -13.2680
25.618811 19.421 -12.6749
25.804456 19.296 -8.5725
25.991445 19.788 0.9094
26.179790 21.166 13.5184
26.369500 23.317 21.6680
26.560584 25.813 24.4104
26.753053 28.113 21.9323
26.946917 30.153 16.8848
27.142185 31.874 9.9484
27.338869 33.300 2.3130
27.536977 34.438 -5.9286
27.736522 35.306 -14.0487
27.937512 35.907 -21.9161
28.139959 36.249 -29.3069
28.343872 36.342 -35.5004
28.549264 36.204 -40.5355
28.756143 35.898 -43.2855
28.964522 35.550 -43.6572
29.174411 35.329 -40.9105
29.385821 35.480 -36.3253
29.598763 36.050 -31.1917
29.813248 36.929 -27.7563
30.029287 37.887 -26.4114
30.246891 38.768 -26.8928
30.466073 39.465 -28.4547
30.686842 39.972 -30.2998
30.909212 40.302 -32.0221
31.133193 40.526 -32.9225
31.358797 40.721 -33.0407
31.586035 40.965 -32.3539
31.814921 41.318 -31.4985
32.045465 41.761 -31.0546
32.277680 42.245 -31.3815
32.511577 42.681 -32.7249
32.747169 43.010 -34.7223
32.984469 43.195 -37.1119
33.223488 43.230 -39.4067
33.464239 43.151 -41.0782
33.706735 43.021 -41.9373
33.950987 42.923 -41.7992
34.197010 42.949 -41.0204
34.444816 43.129 -40.2230
34.694417 43.442 -39.8765
34.945827 43.827 -40.3433
35.199059 44.218 -41.5239
35.454126 44.590 -43.0773
35.711041 44.954 -44.7368
35.969818 45.343 -46.2610
36.230470 45.809 -47.6796
36.493011 46.371 -49.3000
36.757455 47.015 -51.4025
37.023814 47.700 -54.1946
37.292104 48.366 -57.7611
37.562338 48.963 -61.9236
37.834530 49.462 -66.3989
38.108695 49.852 -70.9244
38.384846 50.136 -75.2499
38.662999 50.329 -79.1388
38.943167 50.458 -82.4156
39.225365 50.551 -85.0216
39.509608 50.639 -86.9628
39.795911 50.750 -88.3111
40.084289 50.906 -89.2089
40.374756 51.121 -89.8594
40.667328 51.395 -90.5018
40.962020 51.713 -91.3297
41.258848 52.053 -92.4183
41.557827 52.400 -93.7233
41.858972 52.754 -95.1334
42.162299 53.138 -96.5706
42.467824 53.586 -98.1035
42.775564 54.127 -100.0198
43.085533 54.756 -102.7669
43.397749 55.428 -106.7632
43.712227 56.068 -112.2117
44.028983 56.605 -119.0414
44.348036 56.978 -126.9939
44.669400 57.148 -135.7207
44.993093 57.092 -144.8410
45.319131 56.798 -153.9683
45.647532 56.267 -162.7169
45.978313 55.514 -170.7120
46.311491 54.564 -177.6166
46.647083 53.455 176.8160
46.985107 52.230 172.6790
47.325581 50.918 169.9011
47.668521 49.514 168.3945
48.013947 47.981 168.3967
48.361876 46.287 170.9173
48.712326 44.523 178.0071
49.065315 43.061 -168.4674
49.420863 42.420 -151.3671
49.778987 42.615 -137.2931
50.139706 43.180 -127.2686
50.503039 43.901 -118.0771
50.869005 44.946 -107.8085
51.237623 46.447 -98.3820
51.608912 48.206 -92.7898
51.982891 49.926 -91.1525
52.359580 51.497 -91.6786
52.739000 53.003 -92.8080
53.121168 54.594 -94.2920
53.506106 56.312 -97.2209
53.893833 58.045 -102.8075
54.284370 59.617 -111.4125
54.677737 60.884 -122.5717
55.073955 61.763 -135.4595
55.473043 62.217 -149.1992
55.875024 62.234 -162.9476
56.279917 61.827 -175.9606
56.687745 61.037 172.6402
57.098527 59.961 163.7350
57.512287 58.760 157.8248
57.929045 57.631 154.5265
58.348822 56.698 152.6054
58.771642 55.932 150.8574
59.197525 55.232 149.1848
59.626495 54.564 148.1899
60.058573 53.992 148.1554
60.493782 53.582 148.5480
60.932145 53.318 148.6481
61.373685 53.134 148.4426
61.818424 53.025 148.4983
62.266386 53.075 149.0147
62.717593 53.349 149.2172
63.172071 53.785 147.9191
63.629842 54.221 144.7070
64.090930 54.519 140.1562
64.555359 54.632 135.3384
65.023154 54.612 131.2922
65.494339 54.587 128.6328
65.968938 54.734 127.3817
66.446976 55.204 126.8294
66.928478 56.043 125.5335
67.413469 57.140 121.9119
67.901975 58.280 115.1837
68.394021 59.240 105.5441
68.889632 59.878 93.9293
69.388835 60.125 81.6933
69.891655 59.992 70.0016
70.398118 59.567 60.0616
70.908252 58.986 52.4408
71.422083 58.387 47.0927
71.939636 57.857 43.7537
72.460941 57.471 42.4708
72.986023 57.363 43.2662
73.514909 57.661 45.1459
74.047629 58.365 46.8311
74.584208 59.423 47.8922
75.124676 60.798 47.7645
75.669061 62.351 45.0563
76.217390 63.826 38.8326
76.769692 65.013 29.8912
77.325997 65.826 19.7106
77.886333 66.306 9.8442
78.450730 66.571 1.1602
79.019216 66.756 -6.2347
79.591822 66.932 -12.9739
80.168577 67.073 -19.6846
80.749512 67.110 -26.4078
81.334656 67.007 -32.5573
81.924040 66.809 -37.3721
82.517696 66.628 -40.4881
83.115653 66.593 -42.2256
83.717943 66.776 -43.4393
84.324598 67.168 -45.0596
84.935649 67.689 -47.8846
85.551128 68.211 -52.3749
86.171066 68.598 -58.3636
86.795497 68.765 -65.1024
87.424453 68.698 -71.6732
88.057967 68.443 -77.4529
88.696071 68.052 -82.2290
89.338800 67.562 -85.9410
89.986185 66.994 -88.4077
90.638262 66.385 -89.2805
91.295065 65.832 -87.8332
91.956626 65.595 -82.7808
92.622982 66.085 -74.5859
93.294166 67.354 -68.5165
93.970214 68.900 -68.7433
94.651161 70.257 -74.2863
95.337042 71.231 -82.8779
96.027894 71.774 -92.8976
96.723752 71.888 -103.0843
97.424652 71.628 -112.1499
98.130631 71.132 -119.0470
98.841726 70.589 -123.6584
99.557974 70.150 -126.8135
100.279412 69.881 -129.3367
101.006078 69.819 -131.7410
101.738010 69.988 -134.8112
102.475245 70.338 -139.8398
103.217823 70.707 -148.2051
103.965782 70.842 -160.4950
104.719161 70.490 -176.0709
105.477999 69.475 166.5493
106.242336 67.720 149.1173
107.012212 65.252 132.8118
107.787666 62.177 116.9277
108.568740 58.703 96.7827
109.355474 55.464 60.5747
110.147909 54.144 12.3281
110.946086 55.244 -15.0013
111.750047 57.002 -28.3702
112.559834 58.603 -35.3240
113.375489 60.074 -38.0792
114.197055 61.572 -38.3401
115.024574 63.190 -37.6504
115.858089 64.911 -37.7469
116.697645 66.577 -40.4641
117.543284 67.972 -46.4312
118.395051 68.942 -54.5358
119.252990 69.466 -62.7502
120.117147 69.656 -69.3796
120.987565 69.673 -73.9043
121.864291 69.636 -76.5735
122.747370 69.656 -77.1299
123.636848 69.935 -74.9739
124.532771 70.693 -71.1449
125.435187 71.921 -68.6304
126.344142 73.397 -69.2891
127.259684 74.927 -73.0988
128.181860 76.390 -79.9155
129.110718 77.664 -89.9794
130.046308 78.592 -103.3578
130.988677 79.013 -119.2958
131.937875 78.828 -136.1075
132.893951 78.055 -151.7666
133.856956 76.828 -165.0402
134.826938 75.312 -176.2781
135.803950 73.607 173.5221
136.788041 71.806 163.3134
137.779264 70.107 149.3613
138.777669 68.699 123.9028
139.783309 67.724 77.3640
140.796237 67.564 21.1772
141.816504 68.549 -12.2832
142.844165 70.303 -29.5568
143.879273 72.154 -41.9647
144.921881 73.744 -53.5674
145.972045 74.990 -64.9529
147.029819 75.908 -76.0204
148.095257 76.512 -87.0593
149.168417 76.742 -98.4205
150.249353 76.531 -109.0984
151.338121 75.956 -116.8882
152.434780 75.302 -120.3683
153.539385 74.912 -121.1005
154.651995 74.872 -122.5757
155.772667 74.960 -126.6534
156.901460 74.890 -133.2162
158.038432 74.415 -141.7880
159.183644 73.309 -150.0809
160.337154 71.562 -152.0930
161.499023 69.688 -142.2833
162.669312 68.608 -127.1868
163.848081 68.928 -112.7695
165.035392 70.728 -95.2817
166.231306 73.310 -84.5646
167.435887 75.686 -88.1580
168.649196 77.476 -98.8324
169.871298 78.773 -111.3525
171.102255 79.668 -125.7074
172.342133 80.024 -143.3007
173.590995 79.603 -163.1311
174.848907 78.295 177.9036
176.115934 76.171 162.0234
177.392143 73.342 149.1285
178.677599 69.821 139.5016
179.972371 65.721 138.1316
181.276525 63.121 147.2683
182.590129 65.930 -21.2061
183.913252 70.599 -20.4877
185.245964 74.802 -25.1704
186.588332 78.113 -38.5509
187.940428 80.314 -59.6521
189.302322 81.341 -83.2788
190.674085 81.336 -104.4116
192.055788 80.627 -120.1196
193.447503 79.568 -130.9282
194.849303 78.329 -138.7246
196.261262 76.942 -142.7646
197.683452 75.594 -141.2488
199.115948 74.656 -135.0591
200.558824 74.376 -128.8557
202.012156 74.837 -122.6113
203.476019 76.371 -109.2566
204.950490 78.615 -103.1846
206.435646 80.604 -111.0120
207.931564 81.929 -124.8853
209.438322 82.568 -140.5938
210.955998 82.634 -156.1580
212.484672 82.224 -171.8999
214.024424 81.227 170.6626
215.575333 79.423 155.2302
217.137481 77.307 166.6370
218.710948 76.790 -147.6804
220.295818 77.881 -151.1685
221.892172 78.732 -165.7231
223.500094 78.910 -179.0298
225.119668 78.628 168.6279
226.750978 77.746 154.4229
228.394109 76.118 144.5127
230.049147 74.575 154.8765
231.716178 74.876 -174.7896
233.395289 76.407 -175.3174
235.086567 77.894 174.6450
236.790102 79.553 167.1870
238.505980 81.400 155.8394
240.234293 82.931 136.4434
241.975130 83.776 111.1587
243.728581 83.705 82.3550
245.494739 82.550 53.7939
247.273695 80.334 30.9534
249.065542 77.345 18.5940
250.870374 74.266 19.5190
252.688284 72.402 27.3870
254.519367 72.386 27.8577
256.363720 73.253 21.6460
258.221437 74.055 8.9548
260.092616 74.150 -9.4080
261.977354 73.226 -26.7810
263.875750 71.721 -29.4006
265.787903 71.025 -14.9233
267.713911 71.325 -17.4939
269.653877 71.388 -28.7593
271.607900 70.845 -38.2979
273.576083 70.005 -39.9180
275.558528 69.762 -28.2085
277.555338 70.421 -24.6221
279.566619 71.449 -26.5396
281.592474 72.720 -28.4937
283.633009 73.689 -40.2271
285.688331 73.665 -59.3503
287.758546 72.667 -71.7158
289.843763 72.065 -33.7317
291.944090 72.924 -19.8396
294.059638 73.854 -34.6860
296.190515 74.014 -50.0894
298.336833 73.523 -60.8892
300.498705 72.748 -66.7214
302.676243 71.812 -73.4297
304.869559 70.590 -75.9165
307.078770 70.005 -57.2527
309.303989 71.092 -42.6489
311.545334 72.765 -46.5112
313.802919 74.011 -58.6038
316.076865 74.433 -76.1501
318.367288 73.928 -95.3318
320.674309 72.575 -115.2480
322.998047 70.447 -135.9800
325.338624 68.249 -144.8933
327.696162 67.599 -25.1497
330.070783 67.770 -49.6118
332.462612 67.337 -64.3047
334.871773 67.270 -25.4312
337.298392 68.182 -25.4463
339.742595 68.691 -46.6084
342.204510 67.976 -68.7957
344.684265 66.040 -75.6882
347.181989 63.829 -44.4688
349.697813 62.478 -43.1602
352.231868 62.263 -50.6902
354.784285 64.467 56.8840
357.355198 68.399 64.5864
359.944741 72.220 56.2800
362.553049 75.127 40.1353
365.180258 76.718 15.4631
367.826505 76.949 -9.6042
370.491927 76.274 -27.0012
373.176665 75.533 -36.5554
375.880856 75.175 -47.0088
378.604644 74.722 -63.0728
381.348169 73.493 -81.0784
384.111575 71.348 -92.4812
386.895006 68.948 -83.9968
389.698607 67.505 -70.6001
392.522524 66.692 -80.9690
395.366904 65.382 -93.2690
398.231895 63.913 -87.4924
401.117648 63.579 -86.9961
404.024312 64.264 -120.6262
406.952038 65.387 151.5515
409.900981 66.630 67.9585
412.871292 67.402 24.9292
415.863128 67.200 -5.5850
418.876643 66.246 -22.0525
421.911996 65.775 -26.8154
424.969344 66.747 -31.0864
428.048847 68.415 -45.2664
431.150666 69.539 -72.5396
434.274961 69.487 -107.8989
437.421897 68.164 -144.9150
440.591636 65.882 179.0857
443.784345 63.126 145.3064
447.000189 60.711 -176.0962
450.239337 60.254 -158.1265
453.501956 61.117 170.4753
456.788219 61.212 136.0767
460.098294 59.996 112.3945
463.432356 58.443 108.9395
466.790578 57.742 92.5593
470.173135 57.760 51.2642
473.580203 59.195 -106.0691
477.011961 61.983 -145.1121
480.468586 64.509 -171.4089
483.950259 65.797 159.9507
487.457163 65.721 133.6199
490.989478 64.630 114.6184
494.547390 63.115 105.1912
498.131084 61.860 99.9285
501.740748 60.761 88.8369
505.376568 59.087 76.0935
509.038735 56.891 73.9028
512.727439 55.729 120.5137
516.442874 56.592 131.8438
520.185232 57.596 113.5537
523.954708 57.488 85.7078
527.751500 56.215 54.3557
531.575805 54.919 -160.6719
535.427822 54.355 170.4624
539.307753 53.367 151.6531
543.215800 52.043 156.5481
547.152165 51.769 159.3003
551.117055 52.463 142.7480
555.110677 52.922 88.7622
559.133237 53.689 -61.4294
563.184947 55.872 -93.7026
567.266018 58.463 -128.6997
571.376661 60.811 174.7063
575.517092 62.918 20.0449
579.687526 64.600 -39.8982
583.888181 65.622 -79.9919
588.119275 66.017 -113.5410
592.381030 65.889 -145.4939
596.673667 65.065 178.4900
600.997410 63.230 136.4429
605.352485 61.193 75.3696
609.739119 61.260 -1.0195
614.157540 62.953 -47.5889
618.607979 64.260 -87.3931
623.090667 64.397 -127.4717
627.605839 63.356 -165.5508
632.153730 61.812 153.8384
636.734576 60.472 97.0972
641.348617 59.589 29.2090
645.996094 59.256 146.6504
650.677248 59.278 96.8291
655.392323 59.365 60.5894
660.141566 59.340 38.5420
664.925224 60.199 44.4800
669.743546 62.362 50.1738
674.596784 64.387 36.4307
679.485191 65.233 14.3408
684.409020 64.488 -1.2266
689.368530 63.286 6.2715
694.363979 63.471 8.2563
699.395626 64.616 -0.0693
704.463736 64.671 -22.3271
709.568570 62.936 -35.7534
714.710396 61.295 -33.9385
719.889483 62.224 -68.2026
725.106099 63.873 100.7256
730.360516 64.263 64.0566
735.653010 63.216 43.5254
740.983855 61.912 40.7402
746.353329 61.295 37.6899
751.761713 61.593 38.6118
757.209288 62.462 35.5864
762.696339 62.574 19.4531
768.223151 61.700 7.6729
773.790013 61.050 43.5356
779.397214 61.281 46.2085
785.045047 62.467 42.1260
790.733808 64.847 77.2129
796.463791 66.703 61.7339
802.235296 67.465 29.3276
808.048623 67.845 -3.5039
813.904077 67.739 -40.2065
819.801961 66.941 -76.4346
825.742584 65.584 -105.3696
831.726255 64.086 -114.5176
837.753287 63.217 -121.3442
843.823992 63.307 -123.8936
849.938689 64.192 -131.8218
856.097695 65.257 -143.0225
862.301332 65.829 -158.7578
868.549922 65.736 -174.3481
874.843793 65.039 170.5693
881.183272 63.518 164.3203
887.568689 62.157 171.6025
894.000378 61.818 168.6377
900.478673 62.033 162.3413
907.003913 63.375 167.6445
913.576437 65.406 173.6885
920.196588 66.703 149.4282
926.864712 66.867 112.7012
933.581156 65.892 73.0674
940.346270 63.748 44.3408
947.160407 61.285 44.7939
954.023921 61.159 51.8379
960.937172 63.188 38.0986
967.900519 64.616 5.2046
974.914325 64.585 -31.7822
981.978956 63.269 -62.8198
989.094780 61.212 -58.3179
996.262169 59.485 -3.1221
1003.481495 59.116 17.4209
1010.753136 59.591 -4.6621
1018.077470 59.393 -15.8008
1025.454879 58.730 62.8135
1032.885748 58.273 46.2734
1040.370463 58.001 31.1899
1047.909417 57.562 22.7754
1055.503000 56.663 20.6743
1063.151610 55.885 28.7290
1070.855645 56.668 66.1323
1078.615506 58.183 76.0957
1086.431599 59.207 84.4727
1094.304330 59.909 94.6992
1102.234110 59.729 77.9131
1110.221353 58.957 63.3486
1118.266475 58.564 83.3804
1126.369895 58.808 120.2280
1134.532035 59.040 111.2358
1142.753322 59.091 98.8784
1151.034184 60.153 136.6401
1159.375052 62.260 143.4238
1167.776361 63.344 111.2114
1176.238550 62.324 64.2529
1184.762060 60.155 -103.1074
1193.347334 58.969 -144.9004
1201.994821 58.580 -172.4678
1210.704971 58.181 -177.1509
1219.478238 58.286 -123.9185
1228.315080 58.353 -132.5332
1237.215957 57.967 -144.0923
1246.181334 57.624 -147.4614
1255.211678 57.893 -109.6860
1264.307459 58.663 -64.9897
1273.469152 59.613 -70.6040
1282.697235 60.301 -87.3882
1291.992188 60.283 -99.8159
1301.354495 59.784 -110.3008
1310.784647 59.397 -123.6265
1320.283132 59.834 -144.1406
1329.850448 61.100 -177.6143
1339.487093 62.005 135.0132
1349.193569 61.977 116.3042
1358.970381 61.795 100.5073
1368.818041 61.367 67.4233
1378.737061 59.893 43.2529
1388.727958 58.123 42.3823
1398.791253 57.749 48.2202
1408.927471 58.680 39.4976
1419.137140 60.588 67.3198
1429.420793 62.416 75.3130
1439.778965 62.776 35.1543
1450.212197 61.495 -25.7593
1460.721033 59.322 -146.0723
1471.306019 57.770 177.3872
1481.967709 57.402 163.2437
1492.706658 57.709 145.0122
1503.523426 58.727 119.7266
1514.418576 59.615 49.6841
1525.392678 59.354 -69.3745
1536.446302 58.362 -101.3086
1547.580025 58.019 -98.2578
1558.794428 58.783 -98.6396
1570.090095 60.057 -109.5664
1581.467615 60.934 -133.0669
1592.927581 61.072 -171.1499
1604.470591 60.782 100.7070
1616.097246 60.054 15.0420
1627.808153 59.531 -0.5815
1639.603922 60.733 9.9907
1651.485168 62.109 -1.8584
1663.452510 61.912 -17.1821
1675.506573 60.770 -11.1455
1687.647984 59.666 -9.8735
1699.877377 58.907 -8.3237
1712.195390 59.760 -10.0947
1724.602663 61.924 -16.9697
1737.099845 63.610 100.1519
1749.687587 63.653 64.2891
1762.366544 62.748 38.7510
1775.137379 62.372 165.7529
1788.000756 62.693 137.2764
1800.957346 62.302 124.8628
1814.007826 61.556 175.4648
1827.152874 61.331 173.1489
1840.393177 60.737 170.2095
1853.729425 60.398 174.6182
1867.162312 60.586 168.0864
1880.692540 60.421 168.2446
1894.320813 60.103 167.0269
1908.047843 60.448 136.9214
1921.874344 61.420 44.0840
1935.801038 62.625 9.4702
1949.828650 63.521 -15.7881
1963.957912 63.913 -30.9521
1978.189561 64.551 -39.8687
1992.524338 64.453 -59.2241
2006.962991 62.898 -70.0869
2021.506272 60.769 -62.9619
2036.154940 59.416 14.1450
2050.909758 59.524 34.5474
2065.771495 60.039 23.7217
2080.740927 60.805 1.6558
2095.818833 61.540 -51.6777
2111.006001 62.326 -121.1323
2126.303220 62.900 -149.5747
2141.711290 63.054 -168.8965
2157.231013 63.586 175.0508
2172.863198 64.068 158.1958
2188.608660 64.381 148.4375
2204.468221 64.579 135.0024
2220.442706 63.962 -145.4097
2236.532950 63.159 -114.4722
2252.739789 63.122 -129.5806
2269.064070 62.647 -178.8789
2285.506644 61.837 60.3911
2302.068367 61.899 27.1865
2318.750104 62.159 9.1973
2335.552723 62.287 -0.1543
2352.477101 62.571 -4.2603
2369.524119 62.681 -8.2192
2386.694668 62.539 -13.8159
2403.989641 62.296 -20.8745
2421.409941 62.173 -69.2788
2438.956476 62.158 -158.5864
2456.630160 61.958 -173.3306
2474.431915 61.499 -176.6738
2492.362668 61.110 -166.8560
2510.423356 62.015 -156.4160
2528.614918 63.160 -164.2847
2546.938304 63.195 -178.4780
2565.394469 62.343 161.7104
2583.984375 61.262 124.0215
2602.708991 61.473 52.2178
2621.569293 63.089 20.1426
2640.566265 64.118 26.4673
2659.700897 63.583 29.8374
2678.974186 62.156 39.4233
2698.387137 61.364 46.5903
2717.940763 61.142 48.2939
2737.636082 60.899 51.2651
2757.474121 61.073 81.1606
2777.455915 61.519 121.7207
2797.582506 61.650 -169.3208
2817.854942 61.677 -165.1387
2838.274281 61.943 -155.2827
2858.841586 62.063 -139.1069
2879.557931 62.146 -116.5557
2900.424394 61.993 -106.2842
2921.442065 61.250 -92.2051
2942.612039 60.688 -52.9629
2963.935418 61.117 -6.4048
2985.413316 62.190 7.1465
3007.046852 62.743 10.6587
3028.837153 62.342 21.0845
3050.785356 62.167 48.3594
3072.892604 62.506 58.6431
3095.160050 62.433 56.4409
3117.588856 62.442 49.9375
3140.180190 63.354 -126.2881
3162.935230 64.506 -134.6924
3185.855163 65.018 -139.2983
3208.941182 64.623 -130.7886
3232.194493 63.994 -113.6304
3255.616307 63.447 -98.3560
3279.207844 63.193 -73.3081
3302.970336 63.800 -32.2344
3326.905021 64.598 -5.7056
3351.013146 65.008 22.2754
3375.295969 65.051 38.5640
3399.754755 64.667 45.5083
3424.390779 63.977 58.8384
3449.205326 63.541 109.4741
3474.199690 63.658 150.2222
3499.375173 64.039 168.5850
3524.733088 64.332 -174.4907
3550.274757 64.202 -162.0840
3576.001511 63.375 -142.9629
3601.914692 62.621 -107.2886
3628.015651 62.205 -79.6973
3654.305748 62.104 -52.6045
3680.786354 62.720 -22.1216
3707.458849 63.266 0.0420
3734.324624 63.170 21.5518
3761.385080 62.836 55.8833
3788.641627 62.386 83.7793
3816.095686 62.116 107.1733
3843.748688 62.567 141.9946
3871.602076 63.452 167.4668
3899.657300 63.688 -177.4717
3927.915825 62.975 -148.7998
3956.379122 61.961 -112.8379
3985.048676 62.382 -62.8540
4013.925981 64.164 -14.6987
4043.012544 65.095 -3.0850
4072.309879 64.580 17.1382
4101.819515 63.577 43.5103
4131.542990 62.489 64.1475
4161.481854 61.936 105.0859
4191.637667 62.954 160.4570
4222.012001 63.515 169.6597
4252.606441 62.871 174.7856
4283.422580 62.037 -153.8813
4314.462026 61.547 -69.2119
4345.726396 61.658 -26.6802
4377.217321 62.658 -5.2539
4408.936442 63.733 1.5742
4440.885413 64.172 -1.8877
4473.065899 63.971 -13.1050
4505.479579 63.677 -143.3398
4538.128141 63.160 -161.8486
4571.013288 62.457 -151.7427
4604.136735 62.149 -149.8926
4637.500207 62.264 -157.6357
4671.105446 62.581 12.7803
4704.954201 62.976 1.0483
4739.048239 62.846 -2.0269
4773.389336 62.200 18.8027
4807.979283 62.239 -177.0742
4842.819883 62.264 -173.2969
4877.912952 61.723 -167.5200
4913.260320 60.851 -157.6348
4948.863830 59.851 -100.9941
4984.725337 59.695 -32.1924
5020.846712 60.221 -17.4717
5057.229836 60.817 9.2583
5093.876609 61.543 94.3877
5130.788938 62.500 124.5703
5167.968750 63.452 131.6982
5205.417982 64.204 132.2627
5243.138586 64.159 120.3184
5281.132530 63.461 -56.2378
5319.401793 62.458 -60.7646
5357.948371 61.076 -55.6582
5396.774274 60.119 -47.6851
5435.881525 60.031 153.5625
5475.272163 60.747 138.9390
5514.948243 61.973 136.9521
5554.911831 62.800 119.2085
5595.165012 63.056 23.9883
5635.709884 63.949 -15.4888
5676.548561 65.212 -24.7871
5717.683172 65.454 -39.4600
5759.115861 64.880 -80.6670
5800.848789 64.594 -163.3296
5842.884130 64.653 167.5630
5885.224077 64.324 153.1812
5927.870837 64.044 122.8198
5970.826633 64.416 21.3062
6014.093704 64.709 -15.6699
6057.674306 64.395 -45.9277
6101.570711 64.230 -98.2505
6145.785208 64.851 -144.6973
6190.320101 65.735 -173.1426
6235.177712 65.804 140.0171
6280.360380 64.790 56.3716
6325.870460 63.631 35.3652
6371.710325 63.379 32.5444
6417.882365 63.210 33.5337
6464.388986 62.688 -156.0068
6511.232613 62.300 -146.0381
6558.415689 62.113 -137.3696
6605.940673 62.452 -104.5337
6653.810042 63.245 44.4639
6702.026292 63.746 50.1792
6750.591937 64.136 57.0786
6799.509509 64.189 -155.8711
6848.781558 63.716 -130.0449
6898.410653 62.917 -117.8452
6948.399380 62.102 -83.8823
6998.750346 61.589 32.7368
7049.466176 61.424 67.4985
7100.549514 61.853 109.9370
7152.003023 62.569 -178.3208
7203.829385 62.603 -128.3467
7256.031302 62.174 -80.4014
7308.611496 61.951 -27.7207
7361.572708 61.838 22.6455
7414.917698 61.408 71.6367
7468.649249 60.580 122.1538
7522.770160 59.839 -175.6714
7577.283253 59.490 -118.7227
7632.191371 59.340 -69.9009
7687.497376 59.167 -15.3340
7743.204151 59.241 53.9702
7799.314600 59.501 129.4375
7855.831649 59.753 174.7837
7912.758244 59.690 -139.8203
7970.097352 59.221 -43.7939
8027.851962 58.909 12.6035
8086.025087 59.183 57.8606
8144.619758 59.715 147.3672
8203.639030 59.838 -154.2415
8263.085980 59.711 -98.2007
8322.963708 60.219 -2.9355
8383.275334 60.288 35.8457
8444.024002 59.408 91.8528
8505.212881 58.978 -147.1108
8566.845160 58.986 -99.7891
8628.924051 59.251 -28.5078
8691.452792 59.779 43.2222
8754.434642 59.908 94.7434
8817.872884 60.241 168.5161
8881.770826 61.233 -128.2864
8946.131799 61.114 -83.0708
9010.959157 59.948 -16.5461
9076.256282 59.382 58.8625
9142.026576 58.676 114.6577
9208.273470 57.299 -176.4607
9275.000415 56.398 -101.9810
9342.210891 56.497 -18.6956
9409.908403 56.629 69.5664
9478.096478 56.576 136.9001
9546.778672 56.545 -141.7458
9615.958566 56.876 -62.3279
9685.639765 57.376 20.4182
9755.825904 57.283 107.9136
9826.520640 56.753 -173.1562
9897.727659 56.122 -103.0771
9969.450674 56.137 -24.0802
10041.693423 57.397 55.6750
10114.459673 58.579 126.3777
10187.753217 59.157 -140.4891
10261.577877 58.473 -69.7317
10335.937500 56.806 27.1368
10410.835964 55.437 100.2261
10486.277173 54.859 178.2990
10562.265060 55.126 -98.4650
10638.803587 55.415 -20.9749
10715.896743 55.801 87.9984
10793.548548 56.365 171.8127
10871.763050 56.661 -97.3110
10950.544327 56.715 -20.0458
11029.896485 56.452 62.2842
11109.823662 55.863 138.2405
11190.330024 54.548 -141.9171
11271.419768 53.621 -39.2336
11353.097122 53.832 46.6942
11435.366344 54.479 137.7629
11518.231722 55.347 -135.8923
11601.697577 55.736 -48.5642
11685.768261 55.581 36.0362
11770.448155 55.532 144.1676
11855.741674 55.621 -113.3055
11941.653265 55.589 -27.1490
12028.187408 55.532 68.5505
12115.348612 55.476 152.2407
12203.141422 55.546 -111.2573
12291.570415 56.066 -13.5015
12380.640201 56.177 102.0916
12470.355424 55.694 -160.4077
12560.720760 55.644 -60.0911
12651.740920 55.699 26.7820
12743.420650 55.662 124.2738
12835.764729 55.631 -130.0223
12928.777972 55.553 -17.4987
13022.465227 55.200 82.5359
13116.831378 54.950 178.7699
13211.881345 54.724 -86.4899
13307.620084 54.286 6.8953
13404.052584 53.303 111.7622
13501.183875 52.262 -137.8018
13599.019019 51.371 8.6335
13697.563116 50.660 115.5505
13796.821305 50.371 -142.7979
13896.798760 50.464 -43.3782
13997.500692 50.445 57.4775
14098.932352 50.251 169.0098
14201.099028 50.316 -52.3401
14304.006046 50.987 70.0559
14407.658770 51.505 178.2397
14512.062604 51.222 -74.0847
14617.222992 50.782 36.7512
14723.145416 50.716 157.9795
14829.835397 50.740 -80.4875
14937.298497 50.581 30.3706
15045.540320 50.368 144.2903
15154.566507 50.349 -93.1077
15264.382743 50.187 26.5781
15374.994752 49.700 138.7754
15486.408302 48.703 -110.5479
15598.629201 47.592 5.0376
15711.663298 46.923 126.6089
15825.516487 46.828 -109.0029
15940.194703 46.962 19.4893
16055.703925 46.668 158.4692
16172.050174 46.617 -63.2305
16289.239516 47.299 61.3911
16407.278061 48.801 -177.1182
16526.171961 50.504 -62.1279
16645.927415 51.622 51.8149
16766.550667 51.911 174.0576
16888.048005 51.519 -42.4438
17010.425762 50.463 101.0981
17133.690320 49.401 -123.6040
17257.848103 48.608 13.0752
17382.905584 47.656 144.3271
17508.869284 47.158 -88.4727
17635.745768 46.821 43.6455
17763.541652 45.871 -173.5015
17892.263597 45.408 -21.9761
18021.918315 45.521 114.8154
18152.512564 45.464 -119.0752
18284.053153 44.965 2.0479
18416.546939 43.966 123.4951
18550.000830 42.881 -108.9966
18684.421783 41.862 104.4302
18819.816805 40.445 -83.6416
18956.192956 38.574 52.0405
19093.557344 37.012 -179.7778
19231.917131 36.173 -56.7173
19371.279531 35.848 63.0562
19511.651807 35.461 -175.9023
19653.041280 35.131 -54.4209
19795.455318 34.866 65.0166
19938.901348 34.517 -171.2041
