* Measurement data measured by REW V5.31
* Source: Scarlett 2i4 USB, MICROPHONE, R, volume: no control. Timing signal peak level -30.2 dBFS, measurement signal peak level -17.0 dBFS
* Format: 512k Log Swept Sine, 1 sweep at -18.0 dBFS using an acoustic timing reference
* Dated: Apr 16, 2024 8:25:40 AM
* REW Settings:
*  C-weighting compensation: Off
*  Target level: 75.0 dB
* Note: ; Delay -3.6835 ms (-1.263 m, -(4 ft 1.7 in)) using estimated IR delay relative to Acoustic reference played from SPEAKER L with no timing offset
* Measurement: rug-p1-rl
* Smoothing: 1/48 octave
* Frequency Step: 96 ppo
* Start Frequency: 10.093689 Hz
*
* Freq(Hz) SPL(dB) Phase(degrees)
10.093689 27.089 40.7134
10.166832 27.016 36.6031
10.240505 26.927 31.9246
10.314712 26.832 26.9674
10.389457 26.717 22.0087
10.464743 26.509 17.1556
10.540575 26.153 11.5626
10.616956 25.689 5.2078
10.693891 25.124 -1.6366
10.771383 24.437 -8.5992
10.849437 23.544 -16.5189
10.928057 22.487 -26.5699
11.007246 21.461 -39.0461
11.087009 20.703 -53.8548
11.167350 20.345 -71.8616
11.248273 20.318 -95.3301
11.329783 20.576 -120.0926
11.411883 21.110 -140.6516
11.494578 21.960 -156.7861
11.577873 23.148 -170.6162
11.661771 24.468 178.1175
11.746277 25.691 169.0347
11.831395 26.693 161.1768
11.917130 27.548 153.4608
12.003487 28.293 146.2759
12.090469 28.940 139.8477
12.178081 29.489 133.8432
12.266329 29.935 127.6055
12.355216 30.291 121.5161
12.444747 30.571 115.9037
12.534926 30.775 110.4355
12.625760 30.900 104.7089
12.717251 30.952 99.0652
12.809406 30.936 93.8263
12.902228 30.850 88.5065
12.995723 30.694 82.9960
13.089895 30.470 77.5811
13.184750 30.180 72.4351
13.280292 29.822 67.0787
13.376526 29.397 61.5545
13.473458 28.905 56.1044
13.571093 28.345 50.5900
13.669434 27.718 44.7344
13.768489 27.029 38.5393
13.868261 26.273 32.0497
13.968756 25.449 24.9021
14.069979 24.606 16.8199
14.171936 23.783 7.6229
14.274632 22.952 -3.1366
14.378072 22.229 -15.7897
14.482261 21.799 -30.2593
14.587206 21.733 -46.3047
14.692910 21.975 -62.7042
14.799381 22.475 -78.0385
14.906624 23.244 -91.9772
15.014643 24.216 -104.2385
15.123446 25.217 -114.8305
15.233036 26.155 -124.4865
15.343421 27.059 -133.4656
15.454606 27.895 -141.6618
15.566596 28.635 -149.6045
15.679398 29.288 -157.5717
15.793018 29.853 -165.1561
15.907460 30.327 -172.7374
16.022732 30.710 179.3215
16.138840 31.003 171.6263
16.255788 31.205 163.7955
16.373585 31.315 155.4360
16.492234 31.334 147.3099
16.611744 31.259 138.8318
16.732119 31.090 129.7472
16.853367 30.825 120.9083
16.975494 30.463 111.3863
17.098505 30.004 101.2088
17.222408 29.447 91.1984
17.347209 28.791 80.0416
17.472914 28.047 68.1860
17.599530 27.218 56.1309
17.727063 26.313 42.3156
17.855521 25.372 27.9480
17.984909 24.405 12.4141
18.115235 23.448 -5.0927
18.246506 22.557 -22.4015
18.378727 21.737 -41.5088
18.511907 20.976 -60.5624
18.646052 20.281 -78.9194
18.781169 19.602 -98.2618
18.917265 18.858 -115.5106
19.054347 18.037 -134.1172
19.192423 17.104 -152.6128
19.331499 16.013 -171.8049
19.471583 14.892 164.9827
19.612682 13.914 140.8235
19.754804 13.151 109.5372
19.897956 12.833 79.5667
20.042144 13.026 50.1729
20.187378 13.394 26.4857
20.333664 13.724 7.2754
20.481010 13.897 -10.3394
20.629424 13.718 -24.0187
20.778913 13.129 -38.3828
20.929486 11.914 -49.7091
21.081150 10.050 -61.2347
21.233912 8.194 -70.1515
21.387782 6.765 -60.7484
21.542767 7.128 66.8567
21.698874 9.877 63.2456
21.856113 12.981 55.6743
22.014492 15.143 46.0697
22.174018 16.699 36.6285
22.334700 17.793 27.4988
22.496546 18.448 18.1808
22.659566 18.725 10.0836
22.823766 18.610 1.9304
22.989157 18.071 -4.0363
23.155745 17.110 -8.6858
23.323542 15.732 -8.3938
23.492554 14.338 -0.3397
23.662790 14.270 19.2853
23.834261 15.623 41.7323
24.006973 17.770 51.5886
24.180938 20.164 53.7052
24.356163 22.098 51.1212
24.532658 23.618 46.7458
24.710431 24.781 41.5054
24.889493 25.622 36.1112
25.069853 26.186 31.0879
25.251519 26.513 26.8766
25.434502 26.641 23.9446
25.618811 26.687 22.7997
25.804456 26.748 23.9244
25.991445 27.058 26.9329
26.179790 27.715 31.3510
26.369500 28.744 34.9230
26.560584 30.030 37.0309
26.753053 31.369 36.7449
26.946917 32.657 34.6948
27.142185 33.804 31.0942
27.338869 34.781 26.6362
27.536977 35.576 21.4844
27.736522 36.190 16.2036
27.937512 36.632 10.9474
28.139959 36.914 5.9934
28.343872 37.064 1.7471
28.549264 37.110 -1.7343
28.756143 37.119 -4.0092
28.964522 37.158 -5.1987
29.174411 37.306 -5.2178
29.385821 37.633 -4.7654
29.598763 38.150 -4.2230
29.813248 38.823 -4.3601
30.029287 39.577 -5.4806
30.246891 40.349 -7.5848
30.466073 41.072 -10.6416
30.686842 41.721 -14.3325
30.909212 42.277 -18.5361
31.133193 42.736 -22.9613
31.358797 43.102 -27.4786
31.586035 43.381 -32.0221
31.814921 43.580 -36.4436
32.045465 43.703 -40.7314
32.277680 43.749 -44.8789
32.511577 43.711 -48.8123
32.747169 43.578 -52.4277
32.984469 43.338 -55.6157
33.223488 42.980 -58.0952
33.464239 42.516 -59.3937
33.706735 41.994 -59.0593
33.950987 41.512 -56.4926
34.197010 41.268 -51.5427
34.444816 41.438 -45.2030
34.694417 42.064 -39.1770
34.945827 43.031 -35.0931
35.199059 44.111 -33.5983
35.454126 45.161 -34.2214
35.711041 46.103 -36.3730
35.969818 46.904 -39.5511
36.230470 47.570 -43.2885
36.493011 48.116 -47.3116
36.757455 48.562 -51.4843
37.023814 48.925 -55.7324
37.292104 49.216 -60.0387
37.562338 49.440 -64.4154
37.834530 49.589 -68.8589
38.108695 49.656 -73.3292
38.384846 49.630 -77.7427
38.662999 49.506 -81.9447
38.943167 49.288 -85.7021
39.225365 48.993 -88.8080
39.509608 48.657 -91.0990
39.795911 48.325 -92.4972
40.084289 48.046 -93.0771
40.374756 47.859 -93.1030
40.667328 47.774 -92.9569
40.962020 47.769 -92.9385
41.258848 47.811 -93.1539
41.557827 47.871 -93.5487
41.858972 47.940 -93.9919
42.162299 48.029 -94.3792
42.467824 48.159 -94.7201
42.775564 48.349 -95.1797
43.085533 48.598 -96.0358
43.397749 48.882 -97.5706
43.712227 49.156 -99.9644
44.028983 49.372 -103.2449
44.348036 49.480 -107.3115
44.669400 49.442 -111.9716
44.993093 49.223 -116.9633
45.319131 48.797 -121.9525
45.647532 48.145 -126.5074
45.978313 47.264 -130.0573
46.311491 46.180 -131.8578
46.647083 44.983 -131.0559
46.985107 43.848 -127.0612
47.325581 43.013 -120.3367
47.668521 42.630 -112.7339
48.013947 42.647 -106.1813
48.361876 42.891 -101.3212
48.712326 43.224 -97.8448
49.065315 43.577 -95.3406
49.420863 43.914 -93.5668
49.778987 44.201 -92.2607
50.139706 44.430 -90.9402
50.503039 44.645 -89.0143
50.869005 44.955 -86.2360
51.237623 45.459 -83.1956
51.608912 46.151 -81.0807
51.982891 46.910 -80.6476
52.359580 47.613 -81.6759
52.739000 48.221 -83.3792
53.121168 48.792 -85.1427
53.506106 49.421 -87.1099
53.893833 50.134 -90.1663
54.284370 50.845 -95.2673
54.677737 51.396 -102.7423
55.073955 51.638 -112.2161
55.473043 51.468 -122.9188
55.875024 50.819 -133.9149
56.279917 49.652 -144.1995
56.687745 47.959 -152.3801
57.098527 45.794 -156.5283
57.512287 43.346 -154.4034
57.929045 41.016 -145.1732
58.348822 39.271 -132.0881
58.771642 38.280 -119.6349
59.197525 37.889 -108.9672
59.626495 37.873 -100.5146
60.058573 37.979 -94.7385
60.493782 37.986 -90.8489
60.932145 37.821 -87.3865
61.373685 37.531 -83.8632
61.818424 37.108 -81.2933
62.266386 36.355 -80.4878
62.717593 35.026 -79.6050
63.172071 33.438 -68.1759
63.629842 33.524 -6.7318
64.090930 35.809 26.6841
64.555359 38.203 30.9164
65.023154 40.043 32.7462
65.494339 41.711 37.9752
65.968938 43.711 47.0072
66.446976 46.197 56.5579
66.928478 49.012 63.6033
67.413469 51.920 66.4307
67.901975 54.677 64.2241
68.394021 57.066 57.2786
68.889632 58.957 47.1047
69.388835 60.296 35.3088
69.891655 61.094 23.2657
70.398118 61.420 12.3965
70.908252 61.393 3.5642
71.422083 61.167 -2.7238
71.939636 60.874 -6.6473
72.460941 60.593 -8.5533
72.986023 60.395 -8.4480
73.514909 60.390 -6.3901
74.047629 60.691 -3.0367
74.584208 61.352 0.8506
75.124676 62.403 4.6940
75.669061 63.798 7.0836
76.217390 65.319 6.0826
76.769692 66.681 1.4202
77.325997 67.700 -5.6375
77.886333 68.341 -13.2803
78.450730 68.681 -20.1208
79.019216 68.859 -25.4558
79.591822 69.006 -29.4563
80.168577 69.178 -32.7286
80.749512 69.373 -35.6044
81.334656 69.600 -38.0005
81.924040 69.897 -39.8905
82.517696 70.300 -41.5875
83.115653 70.817 -43.4598
83.717943 71.449 -45.7186
84.324598 72.194 -48.7875
84.935649 72.989 -53.4944
85.551128 73.691 -60.4236
86.171066 74.141 -69.3346
86.795497 74.227 -79.2614
87.424453 73.920 -88.9231
88.057967 73.267 -97.1603
88.696071 72.369 -103.2534
89.338800 71.337 -107.0829
89.986185 70.248 -108.8119
90.638262 69.161 -108.0804
91.295065 68.266 -103.4480
91.956626 68.050 -93.6676
92.622982 68.936 -82.7979
93.294166 70.530 -78.8054
93.970214 72.073 -83.0789
94.651161 73.145 -92.4789
95.337042 73.640 -104.0596
96.027894 73.587 -115.8881
96.723752 73.061 -126.7758
97.424652 72.146 -135.9020
98.130631 70.943 -142.6115
98.841726 69.585 -146.6633
99.557974 68.200 -148.4956
100.279412 66.863 -148.7106
101.006078 65.614 -147.5924
101.738010 64.486 -145.6150
102.475245 63.462 -143.8409
103.217823 62.407 -143.3695
103.965782 61.074 -143.8625
104.719161 59.253 -141.9218
105.477999 57.099 -130.0453
106.242336 55.615 -101.5526
107.012212 56.122 -69.6921
107.787666 58.285 -47.9459
108.568740 61.006 -35.2207
109.355474 63.685 -30.0486
110.147909 66.002 -31.6227
110.946086 67.776 -37.8352
111.750047 68.981 -45.8185
112.559834 69.720 -53.3567
113.375489 70.157 -59.3381
114.197055 70.464 -63.4846
115.024574 70.800 -66.0326
115.858089 71.271 -67.9825
116.697645 71.847 -70.8257
117.543284 72.369 -75.6281
118.395051 72.641 -82.1880
119.252990 72.550 -88.9147
120.117147 72.140 -93.8586
120.987565 71.581 -96.0592
121.864291 71.062 -95.7760
122.747370 70.749 -93.3975
123.636848 70.832 -89.1515
124.532771 71.459 -84.4602
125.435187 72.535 -82.3569
126.344142 73.760 -84.4398
127.259684 74.891 -90.2278
128.181860 75.804 -98.8784
129.110718 76.452 -109.7753
130.046308 76.793 -123.0100
130.988677 76.711 -138.9404
131.937875 76.039 -156.9406
132.893951 74.679 -175.3816
133.856956 72.674 166.9998
134.826938 70.213 149.2028
135.803950 67.667 126.9819
136.788041 65.935 95.2202
137.779264 66.370 59.4398
138.777669 68.411 31.3179
139.783309 70.394 8.5251
140.796237 71.726 -10.5005
141.816504 72.584 -24.1654
142.844165 73.331 -33.1982
143.879273 74.057 -41.0526
144.921881 74.633 -49.2390
145.972045 74.990 -57.1113
147.029819 75.160 -64.0503
148.095257 75.192 -70.1847
149.168417 75.108 -75.5743
150.249353 74.979 -79.5951
151.338121 74.974 -82.0005
152.434780 75.233 -84.5043
153.539385 75.630 -90.3589
154.651995 75.781 -101.2887
155.772667 75.284 -116.2529
156.901460 73.886 -132.7135
158.038432 71.608 -148.1348
159.183644 69.262 -146.0278
160.337154 68.878 -22.3413
161.499023 70.119 -33.1027
162.669312 71.304 -42.4424
163.848081 72.396 -45.0736
165.035392 73.664 -45.6099
166.231306 74.764 -51.5381
167.435887 75.193 -61.8314
168.649196 74.884 -69.6417
169.871298 74.439 -68.2968
171.102255 74.752 -60.8062
172.342133 75.773 -58.8906
173.590995 76.690 -65.1914
174.848907 77.004 -75.1237
176.115934 76.657 -84.5052
177.392143 75.748 -91.3407
178.677599 74.416 -94.2753
179.972371 72.994 -90.2411
181.276525 72.539 -71.2158
182.590129 74.049 -47.5892
183.913252 76.488 -41.6183
185.245964 78.778 -46.1696
186.588332 80.530 -57.1913
187.940428 81.430 -74.1254
189.302322 81.244 -93.2008
190.674085 79.952 -108.9957
192.055788 77.778 -115.3784
193.447503 75.434 -104.7712
194.849303 74.329 -83.7465
196.261262 74.883 -73.3826
197.683452 76.128 -70.0581
199.115948 77.629 -68.3929
200.558824 79.237 -70.0781
202.012156 80.675 -77.2628
203.476019 81.705 -88.8823
204.950490 82.197 -103.4766
206.435646 81.986 -120.4506
207.931564 80.879 -136.8097
209.438322 78.923 -146.0112
210.955998 76.792 -140.6388
212.484672 75.926 -125.8087
214.024424 76.509 -124.6293
215.575333 77.105 -136.2363
217.137481 77.071 -151.6678
218.710948 76.397 -169.1844
220.295818 74.998 170.5957
221.892172 72.740 151.4855
223.500094 69.964 147.7480
225.119668 68.108 140.6367
226.750978 67.750 69.1313
228.394109 67.775 -17.0288
230.049147 67.546 -59.9423
231.716178 66.893 -88.4702
233.395289 65.739 -112.4678
235.086567 64.196 -136.8818
236.790102 63.731 -172.9849
238.505980 66.133 111.0288
240.234293 69.329 56.2317
241.975130 71.427 16.2737
243.728581 71.987 -20.7791
245.494739 71.171 -53.2847
247.273695 69.306 -81.1284
249.065542 67.301 -106.4905
250.870374 67.815 -159.2561
252.688284 70.730 114.1731
254.519367 73.353 63.4802
256.363720 74.686 19.3342
258.221437 74.597 -19.2581
260.092616 73.565 26.6921
261.977354 72.225 33.9412
263.875750 70.916 11.7224
265.787903 71.099 59.7319
267.713911 73.077 82.1379
269.653877 74.681 60.6746
271.607900 75.108 38.7803
273.576083 74.559 24.5098
275.558528 73.813 23.5444
277.555338 73.901 29.2622
279.566619 74.821 29.8550
281.592474 75.908 25.5239
283.633009 76.687 16.6082
285.688331 76.858 4.7769
287.758546 76.320 -6.7021
289.843763 75.184 -13.9675
291.944090 74.074 -8.9668
294.059638 74.013 3.7058
296.190515 74.527 0.0591
298.336833 74.350 -12.6726
300.498705 73.312 -18.2048
302.676243 72.723 2.0203
304.869559 73.661 15.7698
307.078770 74.792 7.6594
309.303989 75.190 -4.6882
311.545334 74.941 -15.6279
313.802919 74.216 -24.8174
316.076865 73.420 -26.4724
318.367288 73.144 -29.1316
320.674309 73.030 -42.9651
322.998047 72.321 -65.3652
325.338624 70.573 -93.9768
327.696162 67.702 -128.5811
330.070783 64.241 117.6758
332.462612 62.050 107.9922
334.871773 62.709 130.2798
337.298392 64.745 115.7217
339.742595 67.374 112.1992
342.204510 70.300 111.5562
344.684265 72.887 103.1611
347.181989 74.674 87.1973
349.697813 75.399 66.8914
352.231868 74.999 47.3135
354.784285 73.628 33.3823
357.355198 71.720 31.5183
359.944741 70.183 40.1738
362.553049 69.556 43.4507
365.180258 69.615 47.9692
367.826505 70.065 49.0200
370.491927 70.289 43.2727
373.176665 70.262 39.8757
375.880856 70.168 34.2185
378.604644 69.897 26.1890
381.348169 69.271 15.0588
384.111575 68.122 3.5876
386.895006 66.927 2.3113
389.698607 66.799 -0.0183
392.522524 67.329 -27.1699
395.366904 67.670 -74.3506
398.231895 67.856 -133.1477
401.117648 67.861 177.3032
404.024312 67.527 142.7783
406.952038 66.840 118.2112
409.900981 65.682 99.1726
412.871292 63.946 87.5803
415.863128 62.029 84.6753
418.876643 60.786 83.3049
421.911996 60.819 71.8977
424.969344 61.711 35.7405
428.048847 62.626 -147.5527
431.150666 62.653 165.0728
434.274961 61.297 139.3047
437.421897 59.555 -171.5259
440.591636 60.260 -140.2498
443.784345 63.081 -129.8948
447.000189 65.503 -142.3711
450.239337 66.761 -162.8657
453.501956 66.905 177.8867
456.788219 66.228 162.7222
460.098294 64.891 151.6663
463.432356 63.156 148.5073
466.790578 61.419 144.4573
470.173135 59.489 142.8835
473.580203 57.548 166.0496
477.011961 56.363 179.5425
480.468586 55.940 -170.3525
483.950259 56.101 -163.1270
487.457163 56.386 -161.7178
490.989478 56.646 -160.7234
494.547390 56.480 -167.4851
498.131084 56.159 -154.7795
501.740748 57.003 -126.5950
505.376568 57.947 -138.1792
509.038735 57.605 -159.3296
512.727439 56.463 179.2710
516.442874 55.834 138.3103
520.185232 56.319 47.6072
523.954708 57.664 -6.6267
527.751500 59.311 -34.9956
531.575805 60.873 -56.5701
535.427822 62.150 -79.8201
539.307753 62.610 -111.0359
543.215800 61.967 -147.7310
547.152165 60.957 172.5901
551.117055 61.059 127.8413
555.110677 62.452 84.5305
559.133237 63.671 41.8389
563.184947 63.467 1.5938
567.266018 61.564 -7.7588
571.376661 58.677 19.2739
575.517092 56.357 62.9231
579.687526 56.701 98.6448
583.888181 59.021 113.1960
588.119275 61.221 101.6562
592.381030 62.645 86.6624
596.673667 63.088 71.4644
600.997410 62.476 62.4197
605.352485 61.675 66.6748
609.739119 61.584 71.8135
614.157540 62.042 79.2737
618.607979 62.498 77.9377
623.090667 62.463 75.0491
627.605839 62.924 92.2771
632.153730 64.494 99.0667
636.734576 66.120 92.4612
641.348617 66.820 75.9194
645.996094 66.046 56.3945
650.677248 63.953 51.3984
655.392323 61.837 74.7502
660.141566 61.573 88.8220
664.925224 61.986 77.8040
669.743546 61.385 62.2981
674.596784 60.091 63.0776
679.485191 59.863 68.3252
684.409020 62.052 43.7566
689.368530 65.009 -58.7566
694.363979 67.309 -120.6453
699.395626 68.520 -163.6628
704.463736 68.231 158.6328
709.568570 66.345 129.4082
714.710396 63.733 124.6606
719.889483 62.693 158.1914
725.106099 63.535 130.5247
730.360516 64.254 52.9585
735.653010 64.852 -32.4336
740.983855 65.773 -73.2891
746.353329 66.365 -100.6475
751.761713 66.690 -116.6050
757.209288 67.003 -129.6191
762.696339 66.425 -149.3755
768.223151 64.645 -158.9658
773.790013 62.847 -126.5420
779.397214 62.846 -109.3887
785.045047 63.637 -118.0093
790.733808 63.238 -136.3667
796.463791 62.208 -142.6265
802.235296 62.998 -73.8335
808.048623 64.857 -71.3809
813.904077 65.794 -93.1562
819.801961 65.792 -116.1289
825.742584 64.801 -140.5283
831.726255 62.931 -156.8369
837.753287 60.679 -155.6846
843.823992 58.987 -141.8579
849.938689 59.324 -157.0908
856.097695 60.831 174.5322
862.301332 62.096 143.7471
868.549922 62.514 121.5547
874.843793 63.061 124.1694
881.183272 64.265 115.0840
887.568689 65.368 100.0479
894.000378 66.225 86.5098
900.478673 66.886 73.8965
907.003913 67.429 61.1606
913.576437 67.819 46.2856
920.196588 67.576 26.0718
926.864712 66.106 7.8057
933.581156 63.587 0.1997
940.346270 60.816 -5.6372
947.160407 58.676 -6.9570
954.023921 58.128 -25.3633
960.937172 58.247 -122.3848
967.900519 58.303 130.5029
974.914325 59.220 114.4404
981.978956 60.597 145.5464
989.094780 61.969 132.6997
996.262169 64.218 115.4468
1003.481495 66.660 92.9990
1010.753136 67.959 61.9038
1018.077470 67.623 32.8555
1025.454879 66.631 16.9194
1032.885748 66.135 0.4722
1040.370463 65.617 -19.9683
1047.909417 64.627 -39.9282
1055.503000 63.278 -58.1929
1063.151610 62.161 -74.4087
1070.855645 61.894 -111.1553
1078.615506 61.910 162.1367
1086.431599 62.042 92.5073
1094.304330 62.112 69.2905
1102.234110 61.909 65.3486
1110.221353 61.403 67.2046
1118.266475 61.004 75.4785
1126.369895 61.235 74.4619
1134.532035 62.189 65.9766
1142.753322 62.712 44.3960
1151.034184 62.397 13.3071
1159.375052 62.368 -60.2300
1167.776361 62.949 -155.7778
1176.238550 63.263 164.1362
1184.762060 62.972 138.7905
1193.347334 61.681 126.3452
1201.994821 59.583 155.0923
1210.704971 58.285 171.6934
1219.478238 58.153 178.2480
1228.315080 58.455 -178.0830
1237.215957 59.174 -177.2534
1246.181334 59.599 172.9731
1255.211678 59.086 176.5811
1264.307459 58.126 -112.3086
1273.469152 57.735 -103.2729
1282.697235 58.266 -110.7988
1291.992188 58.675 -127.2065
1301.354495 59.065 -6.5923
1310.784647 59.710 -19.7764
1320.283132 59.932 -38.5483
1329.850448 59.208 -47.1758
1339.487093 58.464 -7.0684
1349.193569 59.236 22.1387
1358.970381 60.230 19.2090
1368.818041 60.604 18.3203
1378.737061 61.847 39.8452
1388.727958 63.734 54.1807
1398.791253 64.700 41.5366
1408.927471 64.328 26.9150
1419.137140 63.515 46.5288
1429.420793 63.422 66.8726
1439.778965 63.391 47.9019
1450.212197 62.188 31.7290
1460.721033 60.716 137.3306
1471.306019 60.915 140.9385
1481.967709 61.480 -152.9336
1492.706658 60.937 -157.9995
1503.523426 59.646 -158.9175
1514.418576 59.201 -138.4326
1525.392678 59.524 -127.3325
1536.446302 59.223 -123.7896
1547.580025 58.874 -106.8198
1558.794428 59.692 -88.9707
1570.090095 60.850 -82.8101
1581.467615 61.426 -77.1519
1592.927581 61.307 -58.7515
1604.470591 60.771 -44.8247
1616.097246 59.960 -35.1963
1627.808153 59.309 -26.3833
1639.603922 58.593 -19.4873
1651.485168 57.944 5.0044
1663.452510 58.068 34.4395
1675.506573 58.991 71.0708
1687.647984 60.436 92.0791
1699.877377 61.140 93.0679
1712.195390 61.035 102.9204
1724.602663 61.542 125.0391
1737.099845 62.372 134.8252
1749.687587 63.237 152.2354
1762.366544 63.913 163.9561
1775.137379 63.671 168.3491
1788.000756 62.851 173.8755
1800.957346 61.976 -179.7046
1814.007826 61.384 -176.9043
1827.152874 61.043 -175.4170
1840.393177 60.653 -77.3662
1853.729425 59.888 -56.9619
1867.162312 59.827 -40.2593
1880.692540 61.286 -20.8145
1894.320813 63.075 -9.7744
1908.047843 64.047 -6.5757
1921.874344 64.214 0.7930
1935.801038 64.070 5.4146
1949.828650 63.603 8.9531
1963.957912 63.189 34.7710
1978.189561 62.806 75.7656
1992.524338 62.248 92.7905
2006.962991 62.203 114.1499
2021.506272 62.500 124.6021
2036.154940 62.389 135.1709
2050.909758 62.690 -175.5723
2065.771495 63.566 -160.6548
2080.740927 63.841 -155.8003
2095.818833 63.406 -141.4971
2111.006001 62.901 -127.2231
2126.303220 62.604 -111.3018
2141.711290 62.203 -77.3447
2157.231013 62.074 -39.0947
2172.863198 62.146 -20.4873
2188.608660 61.933 -5.7891
2204.468221 62.228 22.5322
2220.442706 63.473 45.2888
2236.532950 64.130 54.3894
2252.739789 63.682 65.1179
2269.064070 63.027 90.3716
2285.506644 63.465 109.2317
2302.068367 64.142 117.1482
2318.750104 63.686 130.1326
2335.552723 63.038 171.1443
2352.477101 63.505 -162.4490
2369.524119 64.227 -149.7078
2386.694668 64.659 -94.1223
2403.989641 65.018 -81.3010
2421.409941 64.578 -74.5652
2438.956476 63.678 -56.2012
2456.630160 63.015 -24.8076
2474.431915 63.070 -0.6477
2492.362668 63.110 9.0605
2510.423356 62.295 30.2136
2528.614918 61.452 63.3271
2546.938304 61.460 87.2656
2565.394469 62.016 108.6003
2583.984375 62.475 130.9414
2602.708991 62.778 160.2104
2621.569293 62.924 174.9978
2640.566265 62.005 -176.0886
2659.700897 60.348 -145.4788
2678.974186 59.487 -98.0020
2698.387137 59.695 -78.5935
2717.940763 59.833 -57.4880
2737.636082 60.145 -6.3882
2757.474121 61.281 38.3284
2777.455915 62.091 53.5620
2797.582506 62.275 72.7673
2817.854942 62.858 99.7463
2838.274281 63.110 112.9836
2858.841586 62.178 128.7063
2879.557931 60.998 156.8396
2900.424394 60.532 -173.3833
2921.442065 60.883 -134.7166
2942.612039 61.687 -90.8909
2963.935418 62.750 -60.9167
2985.413316 63.916 -40.4673
3007.046852 64.303 -29.3386
3028.837153 64.122 -8.6042
3050.785356 64.896 46.9434
3072.892604 65.558 76.0142
3095.160050 65.119 108.3931
3117.588856 64.742 131.5642
3140.180190 64.540 147.2263
3162.935230 64.110 162.8342
3185.855163 63.153 179.7344
3208.941182 62.582 -141.1978
3232.194493 63.801 -48.3708
3255.616307 65.427 -21.6963
3279.207844 65.743 -5.4731
3302.970336 65.152 20.1104
3326.905021 64.612 47.3401
3351.013146 64.392 68.1465
3375.295969 64.276 92.2400
3399.754755 64.508 129.6423
3424.390779 65.051 177.4492
3449.205326 65.106 -160.4304
3474.199690 64.136 -133.4707
3499.375173 63.437 -91.6565
3524.733088 63.873 -55.5881
3550.274757 64.861 -20.8164
3576.001511 65.295 4.0698
3601.914692 64.992 31.8032
3628.015651 65.040 69.7012
3654.305748 65.749 103.7688
3680.786354 65.924 125.8125
3707.458849 65.237 151.2756
3734.324624 64.739 -171.9253
3761.385080 64.658 -133.3110
3788.641627 64.650 -90.4897
3816.095686 64.775 -59.8574
3843.748688 64.763 -27.7594
3871.602076 64.593 8.7454
3899.657300 64.506 42.6799
3927.915825 64.575 81.0317
3956.379122 64.733 111.4039
3985.048676 64.276 139.7089
4013.925981 63.626 -175.0183
4043.012544 64.002 -126.3882
4072.309879 64.618 -96.9700
4101.819515 64.281 -72.5756
4131.542990 63.446 -36.4728
4161.481854 63.438 31.1160
4191.637667 64.710 78.7085
4222.012001 65.646 99.4493
4252.606441 65.526 116.4551
4283.422580 64.770 142.6688
4314.462026 64.087 -153.6907
4345.726396 63.818 -89.2610
4377.217321 63.817 -64.0875
4408.936442 63.918 -37.7794
4440.885413 63.503 -11.2811
4473.065899 62.715 36.6511
4505.479579 62.760 108.4050
4538.128141 62.997 135.9121
4571.013288 62.731 154.5022
4604.136735 62.364 164.4041
4637.500207 62.604 104.5901
4671.105446 63.646 27.3201
4704.954201 64.424 26.2159
4739.048239 63.893 32.0232
4773.389336 62.448 57.6067
4807.979283 61.539 160.7168
4842.819883 61.843 -143.3953
4877.912952 62.142 -127.4954
4913.260320 61.712 -109.0913
4948.863830 60.506 -85.7215
4984.725337 59.590 142.9010
5020.846712 59.872 137.5781
5057.229836 60.530 145.7640
5093.876609 61.288 140.6389
5130.788938 61.817 9.8219
5167.968750 62.105 13.6421
5205.417982 61.697 33.6647
5243.138586 60.901 73.4587
5281.132530 60.935 123.9084
5319.401793 61.821 168.6814
5357.948371 62.536 -158.4109
5396.774274 62.084 -121.7546
5435.881525 60.875 -41.3801
5475.272163 60.488 16.6100
5514.948243 60.778 54.3336
5554.911831 60.730 93.1770
5595.165012 60.462 146.9058
5635.709884 60.490 -116.5320
5676.548561 60.972 -64.6939
5717.683172 61.848 -16.6467
5759.115861 62.873 42.8369
5800.848789 63.652 87.2041
5842.884130 63.986 131.4127
5885.224077 63.856 176.5144
5927.870837 63.433 -116.6150
5970.826633 63.106 -64.2866
6014.093704 62.724 -24.7683
6057.674306 62.330 28.4561
6101.570711 63.231 111.4553
6145.785208 64.819 161.6615
6190.320101 65.090 -160.1676
6235.177712 64.529 -61.7184
6280.360380 64.764 -1.5562
6325.870460 64.867 33.4858
6371.710325 64.525 86.5816
6417.882365 65.231 168.8252
6464.388986 65.903 -147.3522
6511.232613 65.310 -111.4146
6558.415689 64.695 -48.1656
6605.940673 65.117 33.2712
6653.810042 65.241 70.4205
6702.026292 64.566 108.4332
6750.591937 64.043 -128.2510
6799.509509 64.409 -81.2922
6848.781558 64.895 -49.6890
6898.410653 65.389 117.4839
6948.399380 65.648 145.4751
6998.750346 65.280 -176.8937
7049.466176 64.938 -78.1003
7100.549514 65.153 -22.7899
7152.003023 64.954 15.8400
7203.829385 64.370 96.6885
7256.031302 64.304 173.0081
7308.611496 63.601 -144.2390
7361.572708 62.133 -62.6627
7414.917698 61.382 45.8427
7468.649249 61.108 103.7886
7522.770160 61.118 174.7144
7577.283253 61.480 -121.8481
7632.191371 61.191 -60.3694
7687.497376 61.141 21.7168
7743.204151 61.479 92.6636
7799.314600 61.238 163.4209
7855.831649 61.032 -111.1738
7912.758244 61.106 -45.4382
7970.097352 61.386 37.9236
8027.851962 62.249 126.8291
8086.025087 62.711 -170.4878
8144.619758 62.769 -84.9351
8203.639030 62.553 -14.6050
8263.085980 62.083 52.1016
8322.963708 62.088 149.8960
8383.275334 62.079 -143.7498
8444.024002 61.162 -78.1160
8505.212881 60.137 2.9082
8566.845160 59.640 74.6807
8628.924051 59.211 -178.6948
8691.452792 58.827 -85.2253
8754.434642 58.597 0.4534
8817.872884 58.607 116.7463
8881.770826 58.442 -166.4502
8946.131799 58.565 -75.9050
9010.959157 59.109 8.0898
9076.256282 59.433 86.4092
9142.026576 59.666 174.9155
9208.273470 59.684 -105.2051
9275.000415 59.257 -24.9146
9342.210891 59.069 65.6084
9409.908403 59.230 153.5396
9478.096478 59.237 -109.8169
9546.778672 59.579 -16.4053
9615.958566 60.042 67.9136
9685.639765 60.714 165.1016
9755.825904 61.044 -114.2202
9826.520640 60.430 -30.7104
9897.727659 59.636 65.8198
9969.450674 58.890 156.4390
10041.693423 58.340 -99.2480
10114.459673 57.913 0.7412
10187.753217 57.867 108.9165
10261.577877 58.250 -153.2661
10335.937500 58.465 -52.8657
10410.835964 58.434 42.1987
10486.277173 58.377 141.6621
10562.265060 58.549 -121.0615
10638.803587 58.563 -22.1763
10715.896743 58.482 75.9517
10793.548548 58.124 178.8184
10871.763050 57.683 -77.5166
10950.544327 57.435 30.5786
11029.896485 57.681 133.5244
11109.823662 58.090 -118.4927
11190.330024 58.436 -18.4019
11271.419768 58.412 89.5059
11353.097122 58.474 -163.4878
11435.366344 58.402 -54.0439
11518.231722 58.307 55.8486
11601.697577 58.382 176.1899
11685.768261 58.562 -70.4072
11770.448155 58.547 46.5552
11855.741674 58.399 154.2681
11941.653265 57.872 -93.0947
12028.187408 56.999 15.3193
12115.348612 56.153 137.4922
12203.141422 55.761 -97.8633
12291.570415 55.654 22.2324
12380.640201 55.431 134.7783
12470.355424 55.069 -114.6299
12560.720760 54.449 0.6348
12651.740920 53.796 121.1445
12743.420650 53.287 -106.1836
12835.764729 53.094 20.8818
12928.777972 53.409 145.1279
13022.465227 54.066 -90.6250
13116.831378 54.637 36.1191
13211.881345 54.914 175.3262
13307.620084 55.218 -49.7998
13404.052584 55.547 85.8369
13501.183875 55.443 -151.1260
13599.019019 55.105 -23.6094
13697.563116 54.480 111.3955
13796.821305 53.888 -115.4424
13896.798760 53.519 18.0059
13997.500692 53.187 148.2676
14098.932352 52.886 -79.4111
14201.099028 52.651 53.5596
14304.006046 52.474 -170.3789
14407.658770 52.091 -25.9473
14512.062604 51.652 115.0859
14617.222992 51.521 -108.5059
14723.145416 51.350 26.3086
14829.835397 50.991 161.8555
14937.298497 50.617 -59.2363
15045.540320 50.525 82.2793
15154.566507 50.789 -134.6318
15264.382743 50.720 12.2510
15374.994752 50.392 159.5898
15486.408302 50.377 -51.4424
15598.629201 50.568 99.7549
15711.663298 50.597 -113.2461
15825.516487 50.488 32.2217
15940.194703 50.212 178.8633
16055.703925 49.491 -29.8477
16172.050174 48.486 133.9834
16289.239516 48.122 -60.7920
16407.278061 48.756 98.9873
16526.171961 50.017 -92.3730
16645.927415 51.378 71.7656
16766.550667 52.196 -137.3467
16888.048005 52.213 9.7031
17010.425762 51.401 160.6191
17133.690320 50.171 -40.4150
17257.848103 48.902 124.8633
17382.905584 47.822 -69.1211
17508.869284 47.053 95.1094
17635.745768 46.607 -98.2148
17763.541652 46.415 66.1543
17892.263597 45.965 -133.4668
18021.918315 44.882 26.6670
18152.512564 43.186 -162.1133
18284.053153 41.978 31.1211
18416.546939 41.830 -131.6934
18550.000830 42.001 45.0342
18684.421783 41.927 -141.4502
18819.816805 41.538 31.5078
18956.192956 41.052 -155.2832
19093.557344 40.283 16.5078
19231.917131 39.014 -169.8887
19371.279531 37.282 8.8145
19511.651807 35.472 -163.0039
19653.041280 34.345 26.3320
19795.455318 33.681 -151.4004
19938.901348 33.377 31.3291
