* Measurement data measured by REW V5.31
* Source: Scarlett 2i4 USB, MICROPHONE, R, volume: no control. Timing signal peak level -29.0 dBFS, measurement signal peak level -17.1 dBFS
* Format: 512k Log Swept Sine, 1 sweep at -18.0 dBFS using an acoustic timing reference
* Dated: Apr 16, 2024 8:26:09 AM
* REW Settings:
*  C-weighting compensation: Off
*  Target level: 75.0 dB
* Note: ; Delay -4.2660 ms (-1.463 m, -(4 ft 9.6 in)) using estimated IR delay relative to Acoustic reference played from SPEAKER L with no timing offset
* Measurement: rug-p1-rr
* Smoothing: 1/48 octave
* Frequency Step: 96 ppo
* Start Frequency: 10.093689 Hz
*
* Freq(Hz) SPL(dB) Phase(degrees)
10.093689 19.146 -2.7126
10.166832 18.820 -4.7872
10.240505 18.419 -7.3990
10.314712 17.997 -10.3091
10.389457 17.515 -13.2639
10.464743 16.737 -16.1425
10.540575 15.380 -19.9287
10.616956 13.733 -24.8099
10.693891 12.194 -30.7639
10.771383 11.172 -37.8328
10.849437 10.789 -51.6364
10.928057 10.920 -117.0319
11.007246 11.517 173.5422
11.087009 12.597 156.7517
11.167350 14.268 147.2596
11.248273 16.464 140.5253
11.329783 18.774 135.0588
11.411883 20.803 130.0151
11.494578 22.355 124.8395
11.577873 23.577 119.5692
11.661771 24.585 114.4897
11.746277 25.472 109.6012
11.831395 26.279 104.6179
11.917130 26.972 99.2607
12.003487 27.558 93.9026
12.090469 28.062 88.7440
12.178081 28.493 83.5513
12.266329 28.840 77.9117
12.355216 29.109 72.2196
12.444747 29.309 66.7909
12.534926 29.440 61.2798
12.625760 29.499 55.3402
12.717251 29.489 49.3925
12.809406 29.412 43.8240
12.902228 29.267 38.0501
12.995723 29.052 31.9933
13.089895 28.769 26.1064
13.184750 28.417 20.7112
13.280292 27.991 15.2076
13.376526 27.502 9.7502
13.473458 26.956 4.8956
13.571093 26.328 0.8374
13.669434 25.659 -2.6560
13.768489 25.035 -5.4525
13.868261 24.496 -6.9230
13.968756 24.035 -6.6302
14.069979 23.785 -5.4872
14.171936 23.901 -4.5186
14.274632 24.405 -2.8459
14.378072 25.169 -1.7617
14.482261 26.064 -2.6979
14.587206 27.088 -4.9362
14.692910 28.191 -7.9287
14.799381 29.258 -12.0306
14.906624 30.242 -17.2891
15.014643 31.166 -22.9883
15.123446 32.013 -28.9131
15.233036 32.772 -35.4176
15.343421 33.447 -42.3490
15.454606 34.036 -49.1626
15.566596 34.538 -56.1632
15.679398 34.952 -63.6428
15.793018 35.275 -70.9009
15.907460 35.505 -78.1516
16.022732 35.640 -85.9228
16.138840 35.674 -93.4321
16.255788 35.603 -100.8966
16.373585 35.422 -108.9078
16.492234 35.118 -116.6071
16.611744 34.687 -124.3829
16.732119 34.113 -132.7292
16.853367 33.369 -140.7446
16.975494 32.454 -149.0960
17.098505 31.317 -158.1917
17.222408 29.879 -167.1620
17.347209 28.119 -177.2316
17.472914 26.101 170.5399
17.599530 23.734 155.6884
17.727063 21.272 128.5020
17.855521 20.007 70.6387
17.984909 20.768 17.0804
18.115235 22.403 -7.9438
18.246506 23.782 -21.5829
18.378727 24.921 -33.9990
18.511907 25.709 -43.8250
18.646052 26.063 -53.1045
18.781169 26.031 -62.6602
18.917265 25.658 -70.8063
19.054347 24.928 -79.8269
19.192423 23.740 -88.4877
19.331499 21.989 -96.8860
19.471583 19.828 -106.8008
19.612682 17.368 -117.0976
19.754804 14.993 -142.5931
19.897956 14.664 73.7493
20.042144 16.874 53.5901
20.187378 19.347 44.4550
20.333664 20.964 36.3375
20.481010 22.030 28.7761
20.629424 22.619 22.7902
20.778913 22.750 16.6639
20.929486 22.500 12.4663
21.081150 21.885 9.3876
21.233912 21.013 8.7579
21.387782 19.915 12.2228
21.542767 19.102 19.8500
21.698874 19.007 31.8325
21.856113 19.562 43.4233
22.014492 20.672 50.1478
22.174018 21.979 52.8693
22.334700 23.040 51.9418
22.496546 23.850 48.9745
22.659566 24.363 44.9170
22.823766 24.584 39.7976
22.989157 24.527 34.8281
23.155745 24.189 29.4536
23.323542 23.573 25.0508
23.492554 22.683 21.2715
23.662790 21.539 19.6382
23.834261 20.246 20.8505
24.006973 19.135 26.1614
24.180938 18.475 36.0710
24.356163 18.741 46.3630
24.532658 19.716 54.1078
24.710431 20.924 57.1001
24.889493 22.167 57.1174
25.069853 23.234 55.1111
25.251519 24.154 52.3632
25.434502 24.947 49.4453
25.618811 25.690 46.8925
25.804456 26.434 44.9292
25.991445 27.255 43.3903
26.179790 28.178 42.2340
26.369500 29.203 40.7744
26.560584 30.296 38.9788
26.753053 31.395 36.3927
26.946917 32.450 33.2264
27.142185 33.414 29.4235
27.338869 34.255 25.3804
27.536977 34.959 21.1299
27.736522 35.523 17.1559
27.937512 35.959 13.5680
28.139959 36.291 10.6909
28.343872 36.575 8.7332
28.549264 36.860 7.7454
28.756143 37.233 7.6079
28.964522 37.728 7.8503
29.174411 38.368 8.0718
29.385821 39.100 7.5010
29.598763 39.873 6.0988
29.813248 40.607 3.6208
30.029287 41.254 0.3954
30.246891 41.783 -3.4642
30.466073 42.176 -7.5599
30.686842 42.440 -11.6067
30.909212 42.591 -15.4456
31.133193 42.670 -18.6993
31.358797 42.723 -21.4114
31.586035 42.800 -23.5286
31.814921 42.954 -25.3734
32.045465 43.194 -27.3369
32.277680 43.506 -29.7009
32.511577 43.840 -32.8638
32.747169 44.137 -36.7661
32.984469 44.351 -41.3370
33.223488 44.438 -46.3975
33.464239 44.375 -51.4749
33.706735 44.155 -56.3105
33.950987 43.788 -60.5195
34.197010 43.311 -63.5239
34.444816 42.804 -65.0802
34.694417 42.367 -65.0377
34.945827 42.118 -63.6219
35.199059 42.132 -61.8857
35.454126 42.368 -60.7480
35.711041 42.734 -60.7592
35.969818 43.110 -62.0933
36.230470 43.401 -64.4275
36.493011 43.564 -67.2770
36.757455 43.585 -70.2498
37.023814 43.471 -72.9697
37.292104 43.254 -75.0649
37.562338 42.980 -76.3358
37.834530 42.705 -76.7815
38.108695 42.474 -76.5375
38.384846 42.319 -75.8898
38.662999 42.244 -75.2068
38.943167 42.226 -74.7802
39.225365 42.230 -74.7172
39.509608 42.230 -75.0195
39.795911 42.202 -75.6329
40.084289 42.133 -76.4846
40.374756 42.012 -77.5063
40.667328 41.825 -78.6250
40.962020 41.558 -79.7286
41.258848 41.201 -80.6479
41.557827 40.744 -81.1515
41.858972 40.193 -80.9528
42.162299 39.563 -79.7202
42.467824 38.889 -77.0708
42.775564 38.234 -72.5231
43.085533 37.720 -65.4515
43.397749 37.581 -55.3807
43.712227 38.107 -43.1871
44.028983 39.363 -32.0238
44.348036 41.066 -24.9955
44.669400 42.860 -22.7225
44.993093 44.511 -24.2266
45.319131 45.910 -28.3108
45.647532 47.016 -34.0118
45.978313 47.823 -40.6024
46.311491 48.341 -47.5144
46.647083 48.591 -54.2781
46.985107 48.604 -60.4954
47.325581 48.423 -65.8458
47.668521 48.103 -70.1266
48.013947 47.700 -73.2988
48.361876 47.263 -75.4976
48.712326 46.818 -76.9556
49.065315 46.369 -77.8729
49.420863 45.912 -78.3354
49.778987 45.446 -78.3539
50.139706 44.976 -77.9694
50.503039 44.500 -77.2852
50.869005 43.999 -76.3591
51.237623 43.443 -75.0392
51.608912 42.821 -72.9469
51.982891 42.157 -69.7045
52.359580 41.492 -65.1855
52.739000 40.860 -59.1998
53.121168 40.377 -50.3407
53.506106 40.497 -35.6337
53.893833 41.830 -16.4240
54.284370 44.139 -3.2544
54.677737 46.574 -0.3940
55.073955 48.624 -4.4266
55.473043 50.141 -12.0289
55.875024 51.122 -21.1226
56.279917 51.605 -30.3998
56.687745 51.660 -38.7988
57.098527 51.392 -45.4417
57.512287 50.950 -49.8461
57.929045 50.487 -52.2177
58.348822 50.098 -53.3959
58.771642 49.769 -54.3030
59.197525 49.427 -55.2034
59.626495 49.022 -55.7523
60.058573 48.562 -55.5221
60.493782 48.090 -54.3456
60.932145 47.644 -52.3197
61.373685 47.251 -49.5917
61.818424 46.925 -46.4009
62.266386 46.653 -43.1233
62.717593 46.380 -39.8667
63.172071 46.064 -35.9427
63.629842 45.778 -30.1466
64.090930 45.707 -22.3494
64.555359 45.935 -14.6096
65.023154 46.292 -8.7944
65.494339 46.567 -4.0507
65.968938 46.792 2.4426
66.446976 47.347 13.1633
66.928478 48.692 27.2529
67.413469 50.797 39.2312
67.901975 53.189 44.9003
68.394021 55.429 44.1801
68.889632 57.282 38.9624
69.388835 58.636 31.1288
69.891655 59.471 22.3033
70.398118 59.826 14.0643
70.908252 59.798 7.5327
71.422083 59.538 3.5588
71.939636 59.207 2.3330
72.460941 58.960 3.7069
72.986023 58.954 7.4994
73.514909 59.346 12.8138
74.047629 60.143 17.6191
74.584208 61.177 20.4573
75.124676 62.292 21.6628
75.669061 63.464 22.0344
76.217390 64.710 21.4410
76.769692 65.960 19.0187
77.325997 67.074 14.4180
77.886333 67.928 8.2421
78.450730 68.483 1.6040
79.019216 68.777 -4.4403
79.591822 68.910 -9.1810
80.168577 68.993 -12.5336
80.749512 69.111 -14.7723
81.334656 69.316 -16.1924
81.924040 69.659 -17.0560
82.517696 70.173 -17.8766
83.115653 70.843 -19.3143
83.717943 71.615 -21.8213
84.324598 72.429 -25.7053
84.935649 73.199 -31.3290
85.551128 73.804 -38.7987
86.171066 74.133 -47.6072
86.795497 74.134 -56.7432
87.424453 73.836 -65.2295
88.057967 73.308 -72.7338
88.696071 72.572 -79.4583
89.338800 71.573 -85.1444
89.986185 70.282 -88.1371
90.638262 68.894 -85.6016
91.295065 68.003 -75.9677
91.956626 68.294 -63.2532
92.622982 69.659 -55.3491
93.294166 71.321 -56.0220
93.970214 72.653 -63.7731
94.651161 73.380 -75.4891
95.337042 73.448 -88.4270
96.027894 72.926 -100.6471
96.723752 71.933 -111.0988
97.424652 70.574 -119.4532
98.130631 68.917 -125.5498
98.841726 67.010 -129.0945
99.557974 64.897 -130.0116
100.279412 62.577 -128.1461
101.006078 60.050 -121.4791
101.738010 57.658 -103.3414
102.475245 56.683 -66.0031
103.217823 57.863 -36.4670
103.965782 59.750 -26.0796
104.719161 61.407 -22.1097
105.477999 62.853 -18.4651
106.242336 64.309 -14.3120
107.012212 65.890 -10.7697
107.787666 67.585 -8.8942
108.568740 69.306 -9.5208
109.355474 70.910 -13.2651
110.147909 72.220 -20.2897
110.946086 73.074 -29.7673
111.750047 73.404 -39.7665
112.559834 73.283 -48.2164
113.375489 72.901 -53.9243
114.197055 72.473 -56.9381
115.024574 72.171 -58.0131
115.858089 72.088 -58.4747
116.697645 72.177 -59.7933
117.543284 72.283 -62.9143
118.395051 72.203 -67.8210
119.252990 71.786 -73.1537
120.117147 71.024 -77.0137
120.987565 70.021 -78.3762
121.864291 68.898 -77.0708
122.747370 67.776 -72.7449
123.636848 66.887 -64.6432
124.532771 66.749 -50.8129
125.435187 67.919 -32.9939
126.344142 69.962 -22.8497
127.259684 71.897 -24.5405
128.181860 73.195 -32.9431
129.110718 73.806 -42.7675
130.046308 73.902 -51.5969
130.988677 73.569 -60.0775
131.937875 72.695 -67.6899
132.893951 71.316 -69.3152
133.856956 70.064 -59.7003
134.826938 69.731 -47.6937
135.803950 70.022 -43.5101
136.788041 70.249 -43.0039
137.779264 70.445 -38.7126
138.777669 71.123 -29.7612
139.783309 72.185 -26.1530
140.796237 73.059 -28.5149
141.816504 73.691 -30.1552
142.844165 74.425 -29.3591
143.879273 75.294 -30.8779
144.921881 75.942 -36.7819
145.972045 76.113 -44.4388
147.029819 75.799 -51.0804
148.095257 75.132 -54.8782
149.168417 74.376 -54.4338
150.249353 73.910 -50.1323
151.338121 73.984 -45.0326
152.434780 74.428 -43.3370
153.539385 74.763 -46.6244
154.651995 74.576 -52.6804
155.772667 73.754 -56.6617
156.901460 72.810 -51.0902
158.038432 73.158 -29.0603
159.183644 75.148 -10.6359
160.337154 77.243 -12.3777
161.499023 78.587 -22.7706
162.669312 79.207 -33.4406
163.848081 79.404 -41.9009
165.035392 79.361 -49.7625
166.231306 78.979 -58.4258
167.435887 78.121 -65.6243
168.649196 76.913 -68.0485
169.871298 75.778 -64.0170
171.102255 75.316 -55.0013
172.342133 75.695 -48.5992
173.590995 76.347 -49.2404
174.848907 76.708 -54.6298
176.115934 76.491 -62.6371
177.392143 75.503 -70.4719
178.677599 73.902 -69.8073
179.972371 72.991 -44.8340
181.276525 74.274 -16.3939
182.590129 76.544 -10.9875
183.913252 78.557 -15.6753
185.245964 80.127 -23.3788
186.588332 81.258 -33.4720
187.940428 81.766 -46.7976
189.302322 81.531 -59.8206
190.674085 80.756 -68.7380
192.055788 79.761 -74.0452
193.447503 78.725 -76.9999
194.849303 77.854 -75.9370
196.261262 77.599 -70.5203
197.683452 78.108 -67.9498
199.115948 78.863 -72.3435
200.558824 79.434 -80.9207
202.012156 79.731 -91.9396
203.476019 79.722 -106.2168
204.950490 79.306 -124.4296
206.435646 78.397 -147.4415
207.931564 76.942 -177.5756
209.438322 75.074 136.4659
210.955998 73.196 45.0044
212.484672 71.740 -25.2700
214.024424 70.786 -62.2129
215.575333 69.931 -93.2965
217.137481 68.710 -126.0414
218.710948 67.744 -160.9764
220.295818 68.379 157.1697
221.892172 69.967 118.3872
223.500094 72.151 97.3953
225.119668 74.834 85.3121
226.750978 76.995 64.3403
228.394109 78.013 37.7479
230.049147 77.742 11.5234
231.716178 76.205 -8.0731
233.395289 73.795 -13.1906
235.086567 71.577 -9.8796
236.790102 71.187 0.1505
238.505980 73.305 43.0332
240.234293 75.748 39.9031
241.975130 76.806 12.0393
243.728581 76.065 -18.0294
245.494739 74.030 -13.4451
247.273695 72.611 58.7936
249.065542 73.077 49.6296
250.870374 73.694 31.4974
252.688284 73.243 12.5977
254.519367 71.857 -1.0360
256.363720 70.582 -11.4042
258.221437 70.470 93.5341
260.092616 71.299 100.7018
261.977354 72.584 93.9823
263.875750 74.095 89.9147
265.787903 75.266 80.9647
267.713911 76.214 75.6122
269.653877 77.634 77.8302
271.607900 79.383 74.9443
273.576083 80.630 61.5090
275.558528 80.972 44.3724
277.555338 80.439 28.7944
279.566619 79.237 17.6349
281.592474 77.677 12.1182
283.633009 76.145 11.4999
285.688331 74.807 9.3541
287.758546 73.434 8.2787
289.843763 72.467 23.5995
291.944090 72.637 34.7577
294.059638 73.181 30.0991
296.190515 73.299 19.8527
298.336833 72.519 4.9666
300.498705 70.516 -5.2374
302.676243 67.694 15.1876
304.869559 65.586 47.0392
307.078770 64.911 51.3075
309.303989 64.853 57.8774
311.545334 65.712 85.1562
313.802919 67.135 91.4366
316.076865 68.061 83.3735
318.367288 68.171 72.2073
320.674309 67.442 58.5704
322.998047 66.465 50.1251
325.338624 67.352 162.5297
327.696162 69.925 165.4122
330.070783 71.966 148.3235
332.462612 72.795 129.9973
334.871773 72.648 118.3910
337.298392 72.452 118.3020
339.742595 73.066 122.3651
342.204510 74.141 119.2848
344.684265 74.842 108.6034
347.181989 74.831 95.9712
349.697813 74.214 85.7528
352.231868 73.274 77.6505
354.784285 71.987 67.6704
357.355198 70.081 62.2584
359.944741 68.077 75.7352
362.553049 67.413 90.5355
365.180258 67.965 88.1858
367.826505 68.399 73.8956
370.491927 68.019 50.9354
373.176665 66.559 20.5908
375.880856 63.968 -16.2830
378.604644 60.756 158.2565
381.348169 58.367 -130.9937
384.111575 58.147 -118.3245
386.895006 59.689 -134.5107
389.698607 62.548 -82.0736
392.522524 65.649 -84.9982
395.366904 67.830 -107.4398
398.231895 68.701 -132.0151
401.117648 68.293 -153.4379
404.024312 66.845 -167.8140
406.952038 64.802 -174.0350
409.900981 62.879 -177.1844
412.871292 62.233 -151.3785
415.863128 63.573 -75.2197
418.876643 65.339 -85.4778
421.911996 66.345 -99.1814
424.969344 66.754 -105.9664
428.048847 67.350 -102.5675
431.150666 68.072 -105.6499
434.274961 68.232 -114.6018
437.421897 68.134 -115.7892
440.591636 68.623 -111.7286
443.784345 69.348 -118.4951
447.000189 69.432 -133.0409
450.239337 68.652 -149.1537
453.501956 66.985 -166.6984
456.788219 64.414 -174.0038
460.098294 61.868 -95.2832
463.432356 60.952 -85.1940
466.790578 61.565 -84.0110
470.173135 63.008 -80.2485
473.580203 64.147 -89.9630
477.011961 63.995 -108.7039
480.468586 62.351 -122.6158
483.950259 59.973 -112.4088
487.457163 58.493 -90.2579
490.989478 57.860 -98.0270
494.547390 56.555 -110.8490
498.131084 54.620 -107.3601
501.740748 53.725 -111.2330
505.376568 54.234 -153.6814
509.038735 55.075 17.9619
512.727439 55.726 -62.3679
516.442874 56.188 174.5585
520.185232 56.385 122.9596
523.954708 56.140 99.3619
527.751500 56.336 96.0574
531.575805 57.968 105.4625
535.427822 60.244 110.3948
539.307753 61.749 97.3276
543.215800 61.983 79.9331
547.152165 62.033 86.1527
551.117055 63.465 115.0994
555.110677 64.928 102.8125
559.133237 64.949 80.1831
563.184947 63.588 65.1965
567.266018 61.820 59.3470
571.376661 60.397 47.8544
575.517092 58.828 23.1329
579.687526 57.447 -18.4464
583.888181 58.610 -81.8796
588.119275 61.180 -115.3965
592.381030 63.140 -134.8408
596.673667 64.630 -140.0815
600.997410 65.376 -155.7397
605.352485 65.274 -167.5439
609.739119 65.848 -155.0771
614.157540 67.238 -150.8770
618.607979 67.999 -163.8611
623.090667 68.257 -167.6719
627.605839 68.640 -173.4976
632.153730 68.654 173.2920
636.734576 68.120 161.1865
641.348617 67.023 148.2935
645.996094 65.494 141.4917
650.677248 64.377 141.1611
655.392323 63.730 134.0859
660.141566 63.410 131.8481
664.925224 63.748 114.5874
669.743546 64.267 84.4243
674.596784 65.256 52.7295
679.485191 66.275 18.9438
684.409020 66.997 -1.4299
689.368530 67.985 -9.2314
694.363979 68.630 -37.0454
699.395626 67.844 -66.1333
704.463736 65.536 -43.1514
709.568570 62.861 -24.8152
714.710396 61.694 -17.0125
719.889483 62.756 20.8643
725.106099 64.104 12.1016
730.360516 64.344 -6.6411
735.653010 63.489 -14.8464
740.983855 62.352 -14.1431
746.353329 61.442 -20.6013
751.761713 61.447 -12.0840
757.209288 63.000 24.5239
762.696339 64.791 23.1465
768.223151 66.577 116.5652
773.790013 68.327 93.0364
779.397214 69.182 64.2832
785.045047 68.602 39.9006
790.733808 66.906 24.8181
796.463791 64.770 18.2332
802.235296 63.187 21.4636
808.048623 62.800 27.9470
813.904077 63.258 62.9436
819.801961 64.256 62.0508
825.742584 64.709 38.8560
831.726255 64.235 14.1870
837.753287 63.983 3.8813
843.823992 64.928 -11.7839
849.938689 65.558 -47.0117
856.097695 65.337 -77.5764
862.301332 65.606 -98.9976
868.549922 66.080 -130.3489
874.843793 65.505 -157.8398
881.183272 64.366 -131.9265
887.568689 64.100 -132.3018
894.000378 64.234 -154.7886
900.478673 64.361 -171.7605
907.003913 65.573 175.5908
913.576437 67.396 153.5369
920.196588 68.306 118.2834
926.864712 67.726 79.5259
933.581156 65.830 44.8938
940.346270 63.149 16.1252
947.160407 60.827 -17.3298
954.023921 60.603 -121.9805
960.937172 62.291 150.1465
967.900519 63.718 108.4570
974.914325 64.012 69.8059
981.978956 63.069 30.5901
989.094780 61.751 -24.0776
996.262169 61.545 -103.4241
1003.481495 62.598 -151.4287
1010.753136 63.787 177.9233
1018.077470 64.117 149.5564
1025.454879 63.170 130.3047
1032.885748 61.714 165.9746
1040.370463 61.049 176.3979
1047.909417 60.666 159.5525
1055.503000 59.673 139.3235
1063.151610 58.667 104.6074
1070.855645 58.618 -59.8992
1078.615506 59.155 -85.6084
1086.431599 59.126 -96.7642
1094.304330 59.314 -87.9456
1102.234110 60.651 -70.2031
1110.221353 62.492 -61.0791
1118.266475 63.493 -72.8997
1126.369895 63.208 -87.0525
1134.532035 62.042 -81.5413
1142.753322 62.142 -21.4885
1151.034184 63.824 -17.6626
1159.375052 64.588 -36.0383
1167.776361 63.495 -51.0312
1176.238550 61.548 -48.8115
1184.762060 60.358 -42.2412
1193.347334 60.343 45.4143
1201.994821 61.639 85.6453
1210.704971 63.119 72.1655
1219.478238 63.432 52.5701
1228.315080 62.321 38.1001
1237.215957 60.499 30.8911
1246.181334 58.865 27.7510
1255.211678 58.471 -3.3157
1264.307459 59.313 -93.5491
1273.469152 60.682 -140.4604
1282.697235 61.289 -168.4246
1291.992188 60.379 176.5222
1301.354495 58.803 -162.7078
1310.784647 57.985 -149.0886
1320.283132 57.356 -149.2542
1329.850448 56.129 -137.0012
1339.487093 56.115 -88.1899
1349.193569 58.342 -46.2712
1358.970381 60.395 -49.8677
1368.818041 61.416 -61.9814
1378.737061 61.753 -79.3792
1388.727958 61.562 -108.9541
1398.791253 61.058 167.4355
1408.927471 61.016 107.3755
1419.137140 61.010 90.1023
1429.420793 60.668 83.6519
1439.778965 60.897 90.4780
1450.212197 62.363 114.0007
1460.721033 64.319 122.6582
1471.306019 65.144 117.6917
1481.967709 64.766 125.9966
1492.706658 64.714 143.0054
1503.523426 64.851 141.5493
1514.418576 64.526 131.4556
1525.392678 63.599 117.6772
1536.446302 62.828 -98.7874
1547.580025 62.927 -102.5818
1558.794428 63.572 -105.0776
1570.090095 63.887 -104.2615
1581.467615 64.056 -93.4912
1592.927581 63.781 -90.5486
1604.470591 62.651 -66.1565
1616.097246 61.701 -35.1379
1627.808153 61.065 -20.9829
1639.603922 61.062 -1.8525
1651.485168 61.728 17.5208
1663.452510 62.486 37.2427
1675.506573 62.980 47.8538
1687.647984 63.295 65.3738
1699.877377 63.947 89.5413
1712.195390 64.654 94.5923
1724.602663 64.599 94.1208
1737.099845 63.777 128.2451
1749.687587 63.597 168.3875
1762.366544 63.697 173.9199
1775.137379 63.333 -171.8359
1788.000756 62.862 -157.4988
1800.957346 62.359 -130.6113
1814.007826 62.527 -98.9626
1827.152874 63.240 -82.8892
1840.393177 63.864 -69.7512
1853.729425 64.054 -61.9553
1867.162312 63.430 -56.5168
1880.692540 62.376 -45.9131
1894.320813 61.181 -4.5605
1908.047843 60.488 42.3486
1921.874344 61.266 72.9822
1935.801038 62.769 93.2468
1949.828650 63.565 102.6003
1963.957912 63.250 117.5894
1978.189561 62.832 140.1638
1992.524338 62.809 158.6191
2006.962991 62.796 176.8352
2021.506272 62.867 -159.2288
2036.154940 63.022 -139.2014
2050.909758 63.222 -121.0244
2065.771495 63.578 -95.6167
2080.740927 64.224 -55.1711
2095.818833 65.071 -34.8547
2111.006001 65.678 -23.9048
2126.303220 65.413 -15.8066
2141.711290 64.586 2.2275
2157.231013 63.894 34.4895
2172.863198 64.067 62.2634
2188.608660 64.508 86.0198
2204.468221 64.475 103.3955
2220.442706 63.998 128.2268
2236.532950 64.096 162.7900
2252.739789 64.636 -175.4185
2269.064070 64.962 -157.9307
2285.506644 64.977 -141.3884
2302.068367 64.816 -111.1753
2318.750104 65.181 -81.0623
2335.552723 65.077 -66.2686
2352.477101 64.230 -44.0049
2369.524119 63.546 -17.6638
2386.694668 63.427 10.5852
2403.989641 63.581 30.8997
2421.409941 63.297 48.8057
2438.956476 63.187 79.3596
2456.630160 63.592 109.7441
2474.431915 63.628 132.6919
2492.362668 63.050 156.1968
2510.423356 62.104 176.0571
2528.614918 61.025 -154.3237
2546.938304 60.588 -120.4717
2565.394469 60.959 -90.3003
2583.984375 61.476 -59.2108
2602.708991 62.367 -26.4802
2621.569293 62.577 -8.8066
2640.566265 61.540 33.0745
2659.700897 60.880 76.6238
2678.974186 61.437 118.6346
2698.387137 62.545 145.9353
2717.940763 63.698 171.1923
2737.636082 64.620 -168.6940
2757.474121 64.811 -156.7369
2777.455915 63.965 -135.0135
2797.582506 63.018 -82.7290
2817.854942 62.851 -47.7285
2838.274281 63.128 -20.8518
2858.841586 63.495 -4.0952
2879.557931 63.585 13.7047
2900.424394 63.127 37.3972
2921.442065 62.666 60.7491
2942.612039 63.272 128.1832
2963.935418 63.522 165.9576
2985.413316 62.375 -175.1550
3007.046852 61.535 -125.7794
3028.837153 61.676 -102.1105
3050.785356 61.416 -83.6027
3072.892604 61.220 1.0009
3095.160050 61.857 63.6827
3117.588856 62.214 85.6008
3140.180190 61.925 111.4807
3162.935230 61.832 139.3140
3185.855163 61.249 153.4076
3208.941182 59.908 -175.7393
3232.194493 59.704 -105.2649
3255.616307 60.614 -57.5673
3279.207844 61.115 -28.1501
3302.970336 60.857 -8.5413
3326.905021 60.238 24.4337
3351.013146 60.516 75.6501
3375.295969 61.092 110.4589
3399.754755 61.141 151.4435
3424.390779 61.263 -165.5996
3449.205326 61.713 -126.9647
3474.199690 62.253 -94.7385
3499.375173 62.530 -56.6141
3524.733088 62.769 -16.2069
3550.274757 63.235 19.8209
3576.001511 63.580 51.7906
3601.914692 63.342 83.0912
3628.015651 63.209 130.1199
3654.305748 63.681 176.7512
3680.786354 64.183 -139.4426
3707.458849 64.917 -100.4325
3734.324624 65.478 -70.1884
3761.385080 65.280 -41.6024
3788.641627 64.793 -3.2851
3816.095686 64.727 44.4151
3843.748688 64.552 86.1844
3871.602076 64.567 126.7536
3899.657300 65.166 159.9893
3927.915825 65.121 -178.4969
3956.379122 63.919 -140.6116
3985.048676 63.231 -44.5728
4013.925981 64.132 -0.7086
4043.012544 64.792 25.4460
4072.309879 64.367 48.6558
4101.819515 63.737 78.4243
4131.542990 63.637 169.8563
4161.481854 64.043 -128.1550
4191.637667 64.184 -104.4399
4222.012001 63.570 -73.8486
4252.606441 63.019 -19.6594
4283.422580 63.164 33.2799
4314.462026 63.506 75.6863
4345.726396 63.917 113.6436
4377.217321 63.874 148.1589
4408.936442 63.842 -154.7854
4440.885413 64.277 -91.3652
4473.065899 64.516 -54.6512
4505.479579 63.883 -18.3201
4538.128141 63.045 30.7363
4571.013288 63.052 95.9740
4604.136735 63.452 161.5453
4637.500207 63.409 -163.4393
4671.105446 62.892 -125.9983
4704.954201 62.221 -84.6097
4739.048239 62.022 -12.4373
4773.389336 63.016 55.1979
4807.979283 63.905 82.2372
4842.819883 63.933 105.4958
4877.912952 63.045 173.3726
4913.260320 62.275 -99.1243
4948.863830 62.954 -60.4376
4984.725337 63.693 -36.7887
5020.846712 63.630 -18.2097
5057.229836 62.667 75.5676
5093.876609 60.983 146.5059
5130.788938 60.142 177.5889
5167.968750 60.631 171.9023
5205.417982 61.382 107.0979
5243.138586 61.834 93.9822
5281.132530 62.011 129.1013
5319.401793 61.891 -79.9880
5357.948371 61.659 -35.0767
5396.774274 61.650 0.5581
5435.881525 61.768 100.2012
5475.272163 62.505 160.8818
5514.948243 62.859 -164.6145
5554.911831 62.735 -117.0198
5595.165012 63.171 -58.1086
5635.709884 64.001 5.5972
5676.548561 64.317 53.4998
5717.683172 63.936 107.2764
5759.115861 63.782 167.2473
5800.848789 63.992 -132.9429
5842.884130 64.316 -74.8918
5885.224077 64.052 -17.8521
5927.870837 63.807 51.0244
5970.826633 63.719 118.5293
6014.093704 63.536 -173.0024
6057.674306 63.448 -108.6604
6101.570711 63.975 -39.0811
6145.785208 64.829 23.4465
6190.320101 65.109 82.9277
6235.177712 64.922 144.7734
6280.360380 64.783 -143.2903
6325.870460 64.791 -77.5737
6371.710325 64.925 -16.3523
6417.882365 65.409 57.9709
6464.388986 66.134 132.2742
6511.232613 66.113 -171.6492
6558.415689 65.524 -106.9509
6605.940673 65.355 -28.5186
6653.810042 65.290 39.2812
6702.026292 64.489 105.1221
6750.591937 63.964 -173.0112
6799.509509 64.313 -105.3188
6848.781558 64.010 -46.5845
6898.410653 62.899 34.1675
6948.399380 62.471 117.9995
6998.750346 62.189 -175.2773
7049.466176 61.405 -95.2520
7100.549514 60.903 -8.4146
7152.003023 60.630 58.1235
7203.829385 60.670 133.1201
7256.031302 61.524 -144.0347
7308.611496 61.952 -76.3501
7361.572708 61.557 12.7173
7414.917698 61.320 99.4668
7468.649249 61.483 156.9473
7522.770160 61.630 -104.5581
7577.283253 61.711 -31.5347
7632.191371 61.234 -31.5645
7687.497376 60.512 -77.2261
7743.204151 60.096 -30.6919
7799.314600 60.170 98.9907
7855.831649 60.498 162.2075
7912.758244 60.598 -124.8076
7970.097352 60.570 -29.4409
8027.851962 60.190 45.6045
8086.025087 59.706 139.5352
8144.619758 60.015 -125.1797
8203.639030 61.020 -33.6641
8263.085980 62.241 59.4502
8322.963708 62.820 142.4976
8383.275334 62.604 -127.6919
8444.024002 62.450 -37.8564
8505.212881 62.546 47.3120
8566.845160 62.952 141.9175
8628.924051 63.373 -129.2476
8691.452792 63.296 -43.4160
8754.434642 63.046 48.9097
8817.872884 62.647 138.8867
8881.770826 62.292 -125.9971
8946.131799 62.223 -31.1802
9010.959157 61.717 63.9722
9076.256282 60.771 167.1196
9142.026576 60.081 -92.9922
9208.273470 59.929 10.9902
9275.000415 60.035 109.2007
9342.210891 59.829 -151.0400
9409.908403 59.650 -45.4980
9478.096478 59.490 63.9614
9546.778672 59.664 178.1191
9615.958566 59.829 -76.9951
9685.639765 59.835 33.3789
9755.825904 59.832 134.5039
9826.520640 59.696 -117.6523
9897.727659 59.472 -12.3037
9969.450674 59.151 95.5889
10041.693423 59.001 -154.9365
10114.459673 58.945 -41.0674
10187.753217 59.234 75.4248
10261.577877 59.139 -173.4854
10335.937500 58.749 -58.5781
10410.835964 58.572 59.1816
10486.277173 58.833 -177.5488
10562.265060 59.082 -59.5938
10638.803587 58.937 55.9746
10715.896743 58.915 169.4668
10793.548548 58.981 -76.9561
10871.763050 58.857 35.9863
10950.544327 58.121 149.6797
11029.896485 57.278 -88.9238
11109.823662 56.591 31.1924
11190.330024 56.080 157.8750
11271.419768 56.297 -69.7324
11353.097122 57.048 60.0068
11435.366344 57.695 -169.3428
11518.231722 57.908 -46.5732
11601.697577 58.152 81.4980
11685.768261 58.431 -144.9199
11770.448155 58.550 -15.0889
11855.741674 58.138 119.3701
11941.653265 57.334 -89.3340
12028.187408 57.236 56.5732
12115.348612 57.721 -172.3867
12203.141422 57.863 -37.0293
12291.570415 57.707 102.3154
12380.640201 57.814 -122.4336
12470.355424 57.918 9.8340
12560.720760 57.776 140.3242
12651.740920 57.861 -86.6387
12743.420650 58.098 48.1475
12835.764729 58.068 -173.6338
12928.777972 57.782 -35.3262
13022.465227 57.363 103.9766
13116.831378 56.859 -112.8408
13211.881345 56.484 32.4414
13307.620084 56.061 177.1357
13404.052584 55.428 -37.7979
13501.183875 54.886 107.4590
13599.019019 54.251 -106.3369
13697.563116 53.353 42.2920
13796.821305 52.564 -162.6299
13896.798760 52.200 3.7842
13997.500692 52.445 170.2031
14098.932352 52.732 -34.6182
14201.099028 52.596 118.1787
14304.006046 52.120 -91.5771
14407.658770 51.469 64.9219
14512.062604 50.664 -130.8701
14617.222992 50.142 33.5391
14723.145416 49.518 -160.8301
14829.835397 48.846 9.8867
14937.298497 48.794 -172.6289
15045.540320 48.856 10.5908
15154.566507 48.839 -172.6895
15264.382743 48.659 -1.2217
15374.994752 48.404 169.7188
15486.408302 48.431 -21.0820
15598.629201 48.707 148.6191
15711.663298 48.764 -40.3281
15825.516487 48.750 127.4180
15940.194703 48.512 -66.5879
16055.703925 48.088 102.9355
16172.050174 47.674 -82.5605
16289.239516 47.829 96.4082
16407.278061 48.684 -82.9004
16526.171961 49.780 101.1016
16645.927415 50.713 -70.5664
16766.550667 50.958 109.1016
16888.048005 50.535 -78.2246
17010.425762 49.487 95.8320
17133.690320 47.966 -88.5176
17257.848103 46.192 92.4727
17382.905584 44.673 -76.8184
17508.869284 43.973 -90.8496
17635.745768 43.864 90.4570
17763.541652 43.960 -92.3906
17892.263597 44.246 84.3750
18021.918315 44.105 -96.8418
18152.512564 43.432 87.7061
18284.053153 42.893 -82.6104
18416.546939 42.340 106.9727
18550.000830 41.424 -60.2256
18684.421783 40.383 136.6230
18819.816805 39.626 -5.5430
18956.192956 38.947 -146.1338
19093.557344 38.170 44.1699
19231.917131 37.507 -152.7578
19371.279531 36.652 -11.9385
19511.651807 35.609 156.3027
19653.041280 34.687 -12.0771
19795.455318 33.814 -176.0947
19938.901348 33.272 20.7988
