* Measurement data measured by REW V5.31
* Source: Scarlett 2i4 USB, MICROPHONE, R, volume: no control. Timing signal peak level -28.6 dBFS, measurement signal peak level -19.7 dBFS
* Format: 512k Log Swept Sine, 1 sweep at -18.0 dBFS using an acoustic timing reference
* Dated: Apr 16, 2024 8:40:49 AM
* REW Settings:
*  C-weighting compensation: Off
*  Target level: 75.0 dB
* Note: ; Delay -1.7083 ms (-586 mm, -(1 ft 11.07 in)) using estimated IR delay relative to Acoustic reference played from SPEAKER L with no timing offset
* Measurement: rug-p3-r
* Smoothing: 1/48 octave
* Frequency Step: 96 ppo
* Start Frequency: 10.093689 Hz
*
* Freq(Hz) SPL(dB) Phase(degrees)
10.093689 22.607 88.9062
10.166832 22.402 83.9363
10.240505 22.152 78.4971
10.314712 21.893 72.7412
10.389457 21.624 66.8831
10.464743 21.319 61.0824
10.540575 20.956 54.7780
10.616956 20.554 47.9329
10.693891 20.124 40.7846
10.771383 19.674 33.7176
10.849437 19.208 26.4126
10.928057 18.722 18.4227
11.007246 18.206 10.0144
11.087009 17.656 1.7474
11.167350 17.089 -6.2202
11.248273 16.512 -14.8126
11.329783 15.855 -23.7952
11.411883 15.018 -32.4111
11.494578 13.871 -40.0669
11.577873 12.373 -48.2786
11.661771 10.776 -57.1508
11.746277 9.448 -65.7493
11.831395 8.637 -72.5009
11.917130 8.257 -82.7338
12.003487 8.416 106.5654
12.090469 9.362 92.8454
12.178081 11.327 83.6486
12.266329 14.083 76.7770
12.355216 16.950 70.7494
12.444747 19.390 64.6818
12.534926 21.262 58.4109
12.625760 22.801 52.4964
12.717251 24.147 46.9215
12.809406 25.391 41.4130
12.902228 26.515 35.7586
12.995723 27.514 30.2569
13.089895 28.417 25.0152
13.184750 29.239 19.8270
13.280292 29.969 14.4771
13.376526 30.614 9.2842
13.473458 31.185 4.3892
13.571093 31.679 -0.6302
13.669434 32.095 -5.7015
13.768489 32.436 -10.5005
13.868261 32.703 -15.0768
13.968756 32.894 -19.8292
14.069979 33.005 -24.4147
14.171936 33.036 -28.5533
14.274632 32.986 -32.7050
14.378072 32.849 -36.7334
14.482261 32.621 -40.2234
14.587206 32.296 -43.3148
14.692910 31.879 -46.0917
14.799381 31.372 -48.1707
14.906624 30.757 -49.2375
15.014643 30.061 -49.2853
15.123446 29.380 -48.0981
15.233036 28.751 -45.1979
15.343421 28.197 -40.2719
15.454606 27.891 -34.1273
15.566596 27.982 -27.5979
15.679398 28.411 -21.0659
15.793018 29.023 -15.9947
15.907460 29.747 -12.8467
16.022732 30.565 -11.0990
16.138840 31.347 -10.5703
16.255788 32.019 -11.1547
16.373585 32.602 -12.5288
16.492234 33.087 -14.2173
16.611744 33.464 -16.3041
16.732119 33.742 -18.6749
16.853367 33.934 -20.8836
16.975494 34.037 -23.1158
17.098505 34.067 -25.2599
17.222408 34.042 -27.0011
17.347209 33.963 -28.4718
17.472914 33.859 -29.6147
17.599530 33.752 -30.2831
17.727063 33.650 -30.5323
17.855521 33.587 -30.5467
17.984909 33.578 -30.2383
18.115235 33.624 -29.7985
18.246506 33.732 -29.5210
18.378727 33.900 -29.3113
18.511907 34.103 -29.3859
18.646052 34.330 -29.8207
18.781169 34.570 -30.5299
18.917265 34.799 -31.5175
19.054347 35.015 -32.7838
19.192423 35.210 -34.1519
19.331499 35.381 -35.6318
19.471583 35.530 -37.1440
19.612682 35.664 -38.5477
19.754804 35.784 -39.8916
19.897956 35.904 -41.0607
20.042144 36.028 -42.0500
20.187378 36.169 -42.8756
20.333664 36.336 -43.5060
20.481010 36.534 -43.9963
20.629424 36.771 -44.4047
20.778913 37.049 -44.7315
20.929486 37.367 -45.1229
21.081150 37.723 -45.5433
21.233912 38.108 -46.1313
21.387782 38.517 -46.8727
21.542767 38.936 -47.8037
21.698874 39.354 -48.9532
21.856113 39.761 -50.2496
22.014492 40.143 -51.7009
22.174018 40.497 -53.2184
22.334700 40.812 -54.7070
22.496546 41.092 -56.1386
22.659566 41.339 -57.3201
22.823766 41.563 -58.2834
22.989157 41.783 -58.8604
23.155745 42.014 -59.1078
23.323542 42.285 -59.0580
23.492554 42.606 -58.7746
23.662790 42.989 -58.5358
23.834261 43.427 -58.3689
24.006973 43.899 -58.5812
24.180938 44.386 -59.1008
24.356163 44.854 -60.0211
24.532658 45.286 -61.1954
24.710431 45.663 -62.4816
24.889493 45.988 -63.7214
25.069853 46.267 -64.6639
25.251519 46.533 -65.2242
25.434502 46.822 -65.2096
25.618811 47.186 -64.8477
25.804456 47.662 -64.1416
25.991445 48.265 -63.7736
26.179790 48.984 -63.8035
26.369500 49.765 -64.8600
26.560584 50.567 -66.7709
26.753053 51.327 -69.7304
26.946917 52.013 -73.3933
27.142185 52.597 -77.7671
27.338869 53.061 -82.3984
27.536977 53.400 -87.3152
27.736522 53.617 -92.0353
27.937512 53.722 -96.5215
28.139959 53.734 -100.4630
28.343872 53.694 -103.6982
28.549264 53.640 -106.1286
28.756143 53.636 -107.7668
28.964522 53.724 -108.8621
29.174411 53.937 -109.6536
29.385821 54.264 -110.7377
29.598763 54.676 -112.2468
29.813248 55.119 -114.4913
30.029287 55.545 -117.3423
30.246891 55.924 -120.7502
30.466073 56.231 -124.4764
30.686842 56.463 -128.3270
30.909212 56.622 -132.1991
31.133193 56.725 -135.8690
31.358797 56.785 -139.3258
31.586035 56.819 -142.5253
31.814921 56.842 -145.4882
32.045465 56.857 -148.2659
32.277680 56.867 -150.8889
32.511577 56.866 -153.3727
32.747169 56.852 -155.6558
32.984469 56.827 -157.6822
33.223488 56.804 -159.3391
33.464239 56.807 -160.5635
33.706735 56.866 -161.3882
33.950987 57.012 -161.8859
34.197010 57.266 -162.3247
34.444816 57.628 -162.9868
34.694417 58.081 -164.0783
34.945827 58.598 -165.7698
35.199059 59.145 -168.1574
35.454126 59.695 -171.2037
35.711041 60.227 -174.8514
35.969818 60.725 -179.0424
36.230470 61.176 176.3079
36.493011 61.569 171.3000
36.757455 61.896 166.0266
37.023814 62.152 160.5791
37.292104 62.333 155.0882
37.562338 62.443 149.7245
37.834530 62.492 144.6144
38.108695 62.497 139.8693
38.384846 62.482 135.5834
38.662999 62.478 131.8025
38.943167 62.514 128.4664
39.225365 62.615 125.4360
39.509608 62.791 122.5453
39.795911 63.042 119.6325
40.084289 63.357 116.5748
40.374756 63.723 113.3134
40.667328 64.127 109.8598
40.962020 64.567 106.2858
41.258848 65.050 102.6833
41.557827 65.598 99.1180
41.858972 66.241 95.5703
42.162299 67.013 91.8818
42.467824 67.929 87.7428
42.775564 68.977 82.7571
43.085533 70.109 76.5685
43.397749 71.260 68.9739
43.712227 72.364 59.9631
44.028983 73.366 49.6954
44.348036 74.224 38.4193
44.669400 74.912 26.4164
44.993093 75.413 13.9765
45.319131 75.718 1.3878
45.647532 75.824 -11.0579
45.978313 75.737 -23.0607
46.311491 75.472 -34.3105
46.647083 75.056 -44.4952
46.985107 74.535 -53.3306
47.325581 73.973 -60.6269
47.668521 73.449 -66.3882
48.013947 73.038 -70.8896
48.361876 72.779 -74.6300
48.712326 72.663 -78.1188
49.065315 72.645 -81.6339
49.420863 72.681 -85.1360
49.778987 72.759 -88.3864
50.139706 72.910 -91.1874
50.503039 73.186 -93.6256
50.869005 73.615 -96.1320
51.237623 74.170 -99.2214
51.608912 74.783 -103.0961
51.982891 75.407 -107.5149
52.359580 76.060 -112.0490
52.739000 76.818 -116.5574
53.121168 77.751 -121.5610
53.506106 78.833 -128.0535
53.893833 79.945 -136.7910
54.284370 80.931 -147.9268
54.677737 81.665 -161.0894
55.073955 82.068 -175.6422
55.473043 82.094 169.1388
55.875024 81.723 154.0049
56.279917 80.958 139.6611
56.687745 79.835 126.9817
57.098527 78.442 116.8551
57.512287 76.943 109.7601
57.929045 75.542 105.2329
58.348822 74.361 101.9556
58.771642 73.359 98.7294
59.197525 72.417 95.5634
59.626495 71.493 93.1509
60.058573 70.647 91.8008
60.493782 69.950 90.9512
60.932145 69.380 89.8645
61.373685 68.863 88.5300
61.818424 68.378 87.4987
62.266386 67.989 87.0024
62.717593 67.760 86.4828
63.172071 67.664 85.0895
63.629842 67.604 82.5610
64.090930 67.503 79.2983
64.555359 67.356 75.9115
65.023154 67.214 72.7806
65.494339 67.151 69.9302
65.968938 67.238 67.1029
66.446976 67.531 63.8744
66.928478 68.046 59.5432
67.413469 68.733 53.2438
67.901975 69.469 44.3862
68.394021 70.099 32.8921
68.889632 70.495 19.2124
69.388835 70.581 4.2390
69.891655 70.340 -11.2592
70.398118 69.815 -26.3105
70.908252 69.110 -40.4052
71.422083 68.367 -53.4081
71.939636 67.708 -65.7557
72.460941 67.173 -78.0669
72.986023 66.732 -90.5038
73.514909 66.359 -102.7283
74.047629 66.095 -114.3970
74.584208 66.016 -125.6985
75.124676 66.129 -137.5522
75.669061 66.318 -150.8221
76.217390 66.411 -165.7395
76.769692 66.284 178.1353
77.325997 65.907 161.3187
77.886333 65.346 144.1021
78.450730 64.723 125.9258
79.019216 64.155 105.6100
79.591822 63.715 81.9397
80.168577 63.446 54.5400
80.749512 63.403 24.5568
81.334656 63.609 -5.1545
81.924040 64.017 -31.8096
82.517696 64.537 -54.2360
83.115653 65.098 -72.4476
83.717943 65.695 -86.9171
84.324598 66.370 -98.4087
84.935649 67.156 -107.9958
85.551128 68.029 -116.8785
86.171066 68.910 -125.9780
86.795497 69.707 -135.6698
87.424453 70.353 -145.8588
88.057967 70.822 -156.1837
88.696071 71.135 -166.1946
89.338800 71.353 -175.6324
89.986185 71.544 175.2561
90.638262 71.724 165.9264
91.295065 71.876 156.1512
91.956626 72.029 145.7399
92.622982 72.198 133.4216
93.294166 72.221 117.2325
93.970214 71.773 96.2960
94.651161 70.546 70.8971
95.337042 68.421 40.2065
96.027894 65.726 -14.5715
96.723752 63.636 -141.1926
97.424652 63.051 -175.9719
98.130631 63.247 167.3027
98.841726 63.581 157.8582
99.557974 63.926 151.8423
100.279412 64.314 147.3521
101.006078 64.791 142.9229
101.738010 65.285 137.1262
102.475245 65.674 129.6541
103.217823 65.874 120.6196
103.965782 65.795 109.8635
104.719161 65.308 97.6064
105.477999 64.307 84.8479
106.242336 62.766 72.8303
107.012212 60.747 61.9146
107.787666 58.337 50.5947
108.568740 55.645 34.6533
109.355474 53.178 1.2690
110.147909 52.437 -71.0552
110.946086 53.766 -115.0344
111.750047 55.526 -135.1033
112.559834 56.968 -147.1897
113.375489 58.060 -155.3130
114.197055 58.869 -161.3054
115.024574 59.460 -165.7937
115.858089 59.894 -169.1104
116.697645 60.193 -171.7817
117.543284 60.343 -173.8103
118.395051 60.384 -174.3289
119.252990 60.465 -172.5591
120.117147 60.747 -169.2773
120.987565 61.287 -165.8601
121.864291 62.090 -162.6057
122.747370 63.160 -160.0508
123.636848 64.421 -159.5308
124.532771 65.700 -162.1362
125.435187 66.765 -168.5918
126.344142 67.351 -178.7512
127.259684 67.224 168.9993
128.181860 66.276 157.7017
129.110718 64.841 155.4958
130.046308 64.594 -171.8540
130.988677 66.481 -146.7563
131.937875 68.581 -152.8652
132.893951 69.901 -165.6335
133.856956 70.425 -178.4065
134.826938 70.317 171.0205
135.803950 69.794 164.0857
136.788041 69.151 161.5669
137.779264 68.687 162.2258
138.777669 68.484 162.9468
139.783309 68.441 163.6677
140.796237 68.684 166.9685
141.816504 69.426 170.9978
142.844165 70.449 170.6775
143.879273 71.268 164.9307
144.921881 71.577 156.6819
145.972045 71.368 149.5896
147.029819 70.855 145.8389
148.095257 70.327 145.6067
149.168417 70.016 147.4453
150.249353 70.026 150.3157
151.338121 70.401 153.5383
152.434780 71.088 155.4417
153.539385 71.981 155.6584
154.651995 73.053 154.6831
155.772667 74.278 151.7859
156.901460 75.481 145.1448
158.038432 76.327 133.4451
159.183644 76.472 118.1882
160.337154 75.768 103.6145
161.499023 74.360 94.0154
162.669312 72.644 91.6055
163.848081 71.262 96.9993
165.035392 70.852 104.5564
166.231306 71.071 103.6316
167.435887 70.954 95.6858
168.649196 70.113 89.2505
169.871298 68.934 91.8521
171.102255 68.330 102.9971
172.342133 68.663 110.2278
173.590995 69.291 109.8291
174.848907 69.821 107.8403
176.115934 70.453 107.6567
177.392143 71.364 106.4810
178.677599 72.324 100.5801
179.972371 72.952 89.8469
181.276525 73.029 76.9553
182.590129 72.565 64.7244
183.913252 71.739 54.8970
185.245964 70.851 47.4717
186.588332 70.239 40.6299
187.940428 70.127 31.0537
189.302322 70.248 12.0217
190.674085 69.932 -18.7681
192.055788 68.891 -60.4094
193.447503 67.293 -112.6741
194.849303 65.449 -162.5647
196.261262 63.917 166.9424
197.683452 63.668 154.8342
199.115948 64.732 146.5962
200.558824 66.048 134.3105
202.012156 67.281 121.8613
203.476019 68.936 113.7732
204.950490 71.051 101.7810
206.435646 72.963 79.8408
207.931564 74.301 51.3826
209.438322 75.059 20.0042
210.955998 75.336 -12.3257
212.484672 75.174 -44.4053
214.024424 74.507 -74.7039
215.575333 73.278 -100.1716
217.137481 71.700 -116.9558
218.710948 70.525 -121.5015
220.295818 70.742 -118.9419
221.892172 71.970 -123.5312
223.500094 73.155 -134.7974
225.119668 73.816 -148.9370
226.750978 74.088 -159.8623
228.394109 74.582 -165.5276
230.049147 75.326 -175.3965
231.716178 75.599 167.1736
233.395289 74.867 147.5178
235.086567 73.062 132.2646
236.790102 70.645 133.8352
238.505980 69.079 170.4124
240.234293 69.148 177.9907
241.975130 69.923 179.4924
243.728581 71.501 -163.7986
245.494739 73.343 -164.3162
247.273695 74.729 -174.2170
249.065542 75.767 177.3936
250.870374 76.700 169.9109
252.688284 77.533 161.0854
254.519367 78.224 151.2722
256.363720 78.778 140.6213
258.221437 79.085 127.3835
260.092616 78.918 111.8020
261.977354 78.107 95.5747
263.875750 76.520 82.2166
265.787903 74.369 80.9045
267.713911 72.567 90.0315
269.653877 71.751 92.3408
271.607900 71.508 90.6787
273.576083 71.488 87.6982
275.558528 71.327 78.8779
277.555338 70.461 65.5969
279.566619 68.648 59.7361
281.592474 66.497 68.2590
283.633009 65.210 76.0505
285.688331 65.790 109.8611
287.758546 67.366 116.3359
289.843763 68.078 94.2898
291.944090 67.431 68.4468
294.059638 66.515 93.4299
296.190515 67.239 174.0415
298.336833 68.804 156.2170
300.498705 69.801 138.6841
302.676243 70.260 128.0977
304.869559 70.741 122.6348
307.078770 71.348 116.0129
309.303989 71.884 107.6316
311.545334 72.248 98.7219
313.802919 72.413 89.1357
316.076865 72.225 77.8494
318.367288 71.754 70.6973
320.674309 71.748 71.2183
322.998047 72.611 68.6628
325.338624 73.684 57.4080
327.696162 74.226 38.9475
330.070783 73.908 18.2136
332.462612 72.808 -0.0840
334.871773 71.206 -14.4387
337.298392 69.381 -25.8704
339.742595 67.473 -35.4580
342.204510 65.482 -43.5894
344.684265 63.380 -48.3999
347.181989 61.443 -45.5967
349.697813 60.369 -37.2791
352.231868 60.228 -36.7722
354.784285 60.348 -41.0244
357.355198 60.289 -49.1650
359.944741 59.945 -58.2559
362.553049 59.799 -65.1558
365.180258 60.789 -29.4333
367.826505 63.090 -4.3503
370.491927 65.646 -15.5522
373.176665 67.724 -32.2073
375.880856 68.947 -53.0820
378.604644 69.273 -73.7581
381.348169 69.051 -88.2473
384.111575 68.914 -97.3140
386.895006 68.794 -111.4224
389.698607 68.095 -127.7122
392.522524 66.707 -138.1160
395.366904 65.204 -137.0649
398.231895 64.320 -135.3179
401.117648 63.918 -138.6570
404.024312 63.850 -137.0530
406.952038 64.313 -135.8835
409.900981 64.984 -142.0857
412.871292 65.950 -143.8567
415.863128 67.138 -150.5305
418.876643 67.649 -169.1699
421.911996 67.192 172.0239
424.969344 66.245 158.9814
428.048847 65.578 150.2056
431.150666 65.540 137.9897
434.274961 65.635 118.5103
437.421897 65.066 92.4155
440.591636 63.355 67.4238
443.784345 60.891 51.5994
447.000189 59.824 58.8220
450.239337 62.217 126.3501
453.501956 65.426 114.2786
456.788219 67.687 85.4968
460.098294 68.777 54.6387
463.432356 68.640 25.6523
466.790578 67.389 4.6135
470.173135 65.803 -1.1611
473.580203 65.712 9.5508
477.011961 67.647 22.1287
480.468586 69.707 12.2759
483.950259 70.747 -8.0305
487.457163 70.725 -26.5300
490.989478 70.200 -38.4302
494.547390 69.769 -45.9895
498.131084 69.569 -54.5178
501.740748 69.263 -65.7798
505.376568 68.818 -73.7024
509.038735 68.534 -82.3040
512.727439 67.932 -99.3252
516.442874 66.364 -115.6155
520.185232 64.055 -127.4968
523.954708 61.778 -144.5786
527.751500 61.153 120.3230
531.575805 62.412 14.3848
535.427822 64.002 -3.5024
539.307753 66.273 2.8540
543.215800 68.634 -8.5142
547.152165 70.092 -32.3076
551.117055 70.727 -55.3604
555.110677 70.821 -77.8921
559.133237 70.367 -99.7007
563.184947 69.474 -121.1621
567.266018 68.109 -144.4443
571.376661 66.441 -168.6318
575.517092 65.061 165.8247
579.687526 65.066 137.0259
583.888181 66.072 96.3467
588.119275 66.423 46.8779
592.381030 65.390 -1.6816
596.673667 63.135 -39.5259
600.997410 60.830 -23.7231
605.352485 60.408 93.0366
609.739119 61.731 92.0269
614.157540 63.091 67.2388
618.607979 64.347 46.8447
623.090667 65.250 11.8794
627.605839 65.655 -42.4365
632.153730 66.232 -162.9131
636.734576 67.564 130.3965
641.348617 68.816 90.4448
645.996094 68.741 56.2148
650.677248 67.761 48.7202
655.392323 67.348 48.3599
660.141566 67.338 22.2017
664.925224 66.865 -11.5596
669.743546 65.945 106.8799
674.596784 65.663 95.7485
679.485191 66.957 121.2598
684.409020 68.989 116.2314
689.368530 70.648 95.2539
694.363979 71.603 74.1543
699.395626 71.911 55.9238
704.463736 72.216 43.8442
709.568570 73.032 27.6982
714.710396 73.816 0.8354
719.889483 73.711 -38.6411
725.106099 72.169 -90.4370
730.360516 69.945 -155.6636
735.653010 69.364 154.8330
740.983855 70.279 121.0142
746.353329 70.812 93.7998
751.761713 70.953 74.5459
757.209288 70.931 57.7012
762.696339 70.581 40.3765
768.223151 69.404 23.4702
773.790013 67.936 26.2490
779.397214 67.043 28.1631
785.045047 65.805 38.0679
790.733808 64.537 56.0376
796.463791 65.016 68.4087
802.235296 67.789 93.6714
808.048623 70.734 84.3394
813.904077 72.136 53.0737
819.801961 71.348 17.9756
825.742584 68.746 1.5728
831.726255 65.829 2.8110
837.753287 64.515 -10.2593
843.823992 65.774 113.1152
849.938689 68.435 82.1104
856.097695 70.677 43.4155
862.301332 71.421 -5.1909
868.549922 70.447 -58.0771
874.843793 68.395 -105.7427
881.183272 66.748 -134.4155
887.568689 66.746 -159.5293
894.000378 67.028 165.6616
900.478673 67.535 140.2007
907.003913 69.117 116.4248
913.576437 70.355 73.4849
920.196588 70.292 26.1216
926.864712 69.165 -13.0259
933.581156 67.506 -82.9033
940.346270 66.590 -131.9829
947.160407 66.322 -141.9009
954.023921 65.887 -134.3423
960.937172 66.032 -154.0205
967.900519 67.490 -171.2998
974.914325 69.685 -178.6743
981.978956 71.730 158.4531
989.094780 72.427 115.3809
996.262169 71.688 70.4175
1003.481495 70.631 28.3818
1010.753136 70.124 -11.8975
1018.077470 70.268 -44.1689
1025.454879 70.893 -69.2578
1032.885748 70.911 -104.1455
1040.370463 69.913 -138.3223
1047.909417 68.502 -164.8906
1055.503000 66.865 -146.1577
1063.151610 65.963 -141.6904
1070.855645 66.532 -177.7173
1078.615506 67.853 92.8213
1086.431599 68.929 -63.5693
1094.304330 69.414 -112.9692
1102.234110 70.086 -149.5435
1110.221353 70.965 170.0991
1118.266475 70.815 125.2588
1126.369895 69.450 86.8501
1134.532035 67.960 61.8013
1142.753322 67.866 48.1157
1151.034184 69.168 34.1577
1159.375052 70.467 10.9849
1167.776361 70.639 -17.1357
1176.238550 69.957 -41.5381
1184.762060 68.866 -64.1650
1193.347334 67.292 -73.2559
1201.994821 65.667 -76.0195
1210.704971 64.782 -90.3203
1219.478238 64.537 -126.9038
1228.315080 64.350 163.7549
1237.215957 65.074 101.8403
1246.181334 65.794 54.8208
1255.211678 64.893 16.7021
1264.307459 62.665 2.0083
1273.469152 61.350 14.9497
1282.697235 61.950 28.9272
1291.992188 62.774 27.7578
1301.354495 63.009 -1.4824
1310.784647 63.144 -45.0435
1320.283132 63.338 -135.2021
1329.850448 64.124 157.2402
1339.487093 64.955 121.7485
1349.193569 65.351 96.7939
1358.970381 65.981 72.3911
1368.818041 66.243 39.1636
1378.737061 66.437 7.8657
1388.727958 67.317 131.6758
1398.791253 67.941 95.1841
1408.927471 67.700 91.8823
1419.137140 67.103 96.5776
1429.420793 65.811 67.5508
1439.778965 64.369 56.4272
1450.212197 64.368 139.6289
1460.721033 65.165 150.7241
1471.306019 65.383 141.9883
1481.967709 64.854 145.9961
1492.706658 64.872 154.0488
1503.523426 65.981 139.2788
1514.418576 66.848 130.9990
1525.392678 67.096 143.7925
1536.446302 67.031 167.0806
1547.580025 67.053 -173.7974
1558.794428 66.970 160.3076
1570.090095 66.970 -143.7061
1581.467615 67.793 -140.0205
1592.927581 68.566 -168.0327
1604.470591 68.400 166.0444
1616.097246 67.335 141.3159
1627.808153 65.837 158.2349
1639.603922 64.919 -130.8340
1651.485168 64.289 -151.6445
1663.452510 63.521 -160.6147
1675.506573 63.249 -155.7876
1687.647984 63.372 -150.0317
1699.877377 64.010 -89.7788
1712.195390 65.560 -83.5449
1724.602663 66.931 -97.3813
1737.099845 67.462 -114.3442
1749.687587 67.032 -112.3564
1762.366544 67.175 -87.1387
1775.137379 68.126 -93.1968
1788.000756 68.889 -96.2075
1800.957346 69.541 -87.0806
1814.007826 70.186 -87.6318
1827.152874 70.907 -91.9565
1840.393177 70.716 -106.9023
1853.729425 69.217 -117.6836
1867.162312 67.259 -128.1846
1880.692540 65.406 -118.8677
1894.320813 64.064 -66.8887
1908.047843 63.763 -56.6816
1921.874344 65.118 -33.8481
1935.801038 67.254 -29.2979
1949.828650 68.962 -45.1621
1963.957912 70.080 -69.4668
1978.189561 70.090 -94.6763
1992.524338 69.102 16.8271
2006.962991 68.197 18.7568
2021.506272 67.974 15.1074
2036.154940 67.710 14.2129
2050.909758 68.104 17.5117
2065.771495 69.114 16.3418
2080.740927 70.349 25.9062
2095.818833 71.308 33.2656
2111.006001 71.989 38.8940
2126.303220 72.658 38.2891
2141.711290 72.985 33.5469
2157.231013 72.328 25.6792
2172.863198 71.121 24.6030
2188.608660 70.153 28.8027
2204.468221 69.845 34.4805
2220.442706 70.021 37.3882
2236.532950 70.367 40.8345
2252.739789 70.756 43.0244
2269.064070 70.348 35.9116
2285.506644 68.770 39.6611
2302.068367 67.323 51.6655
2318.750104 66.722 62.5059
2335.552723 67.025 99.5859
2352.477101 67.945 109.6689
2369.524119 68.544 115.2783
2386.694668 68.923 123.9834
2403.989641 69.907 132.6367
2421.409941 71.219 129.9761
2438.956476 71.575 116.2427
2456.630160 70.750 104.3755
2474.431915 69.863 103.9526
2492.362668 69.784 131.9248
2510.423356 69.989 145.7329
2528.614918 69.442 136.7979
2546.938304 68.562 129.7241
2565.394469 67.915 115.3633
2583.984375 67.205 85.6143
2602.708991 66.831 36.3535
2621.569293 67.102 -23.8584
2640.566265 67.304 -64.9341
2659.700897 67.080 -94.1064
2678.974186 66.716 -120.2793
2698.387137 66.810 -94.8662
2717.940763 67.071 -21.4741
2737.636082 66.912 -44.0483
2757.474121 66.502 -64.6348
2777.455915 65.740 -80.6846
2797.582506 64.841 -22.2603
2817.854942 64.903 16.4219
2838.274281 65.159 17.5156
2858.841586 64.690 18.1558
2879.557931 64.943 48.4531
2900.424394 66.398 64.2690
2921.442065 67.762 58.9023
2942.612039 68.274 45.7544
2963.935418 67.525 26.6836
2985.413316 65.766 17.4663
3007.046852 64.196 43.6191
3028.837153 63.341 58.3052
3050.785356 62.792 56.0923
3072.892604 62.549 28.8750
3095.160050 63.022 -61.0771
3117.588856 63.801 -89.3018
3140.180190 64.489 -86.1611
3162.935230 65.341 -96.8462
3185.855163 65.715 -115.7217
3208.941182 65.071 -131.4121
3232.194493 63.962 -144.0400
3255.616307 62.824 -149.3301
3279.207844 62.234 -32.9702
3302.970336 62.582 -41.8462
3326.905021 63.064 -54.5474
3351.013146 63.648 -24.9023
3375.295969 64.492 69.1479
3399.754755 65.015 54.0078
3424.390779 64.862 40.0723
3449.205326 64.561 31.4038
3474.199690 64.792 35.1245
3499.375173 65.166 95.0703
3524.733088 65.046 102.4521
3550.274757 64.034 97.8848
3576.001511 63.103 105.2275
3601.914692 63.114 128.6128
3628.015651 63.653 173.9629
3654.305748 64.334 -172.6240
3680.786354 64.785 -162.8784
3707.458849 64.732 -155.5894
3734.324624 64.599 -133.4424
3761.385080 65.251 -110.8047
3788.641627 66.146 -103.4326
3816.095686 66.663 -98.7158
3843.748688 66.594 -91.9771
3871.602076 66.358 -74.9341
3899.657300 66.477 -63.2651
3927.915825 66.281 -59.1328
3956.379122 65.496 -51.2368
3985.048676 64.864 -21.0327
4013.925981 64.847 -1.4141
4043.012544 64.773 10.3906
4072.309879 64.473 25.3779
4101.819515 64.248 40.8691
4131.542990 64.044 63.7632
4161.481854 64.205 81.4150
4191.637667 64.128 86.5103
4222.012001 63.839 105.9448
4252.606441 63.951 150.1943
4283.422580 64.554 161.7378
4314.462026 65.157 166.1396
4345.726396 65.114 -171.6680
4377.217321 64.563 -141.8911
4408.936442 63.867 -126.5825
4440.885413 63.432 -107.9653
4473.065899 63.524 -92.5098
4505.479579 64.237 -71.3789
4538.128141 65.389 -47.8257
4571.013288 65.892 -42.3047
4604.136735 65.364 -31.7812
4637.500207 64.888 -10.4097
4671.105446 64.990 2.7974
4704.954201 64.715 7.4409
4739.048239 63.470 20.8501
4773.389336 62.707 63.1250
4807.979283 62.797 80.1343
4842.819883 62.434 89.0669
4877.912952 62.559 128.9355
4913.260320 63.882 156.8589
4948.863830 64.311 153.1152
4984.725337 63.119 147.5708
5020.846712 61.968 -110.2695
5057.229836 61.878 -92.2368
5093.876609 62.065 -85.5698
5130.788938 62.414 -14.3022
5167.968750 62.806 -11.2607
5205.417982 62.681 -12.4697
5243.138586 62.117 36.4717
5281.132530 61.705 67.9585
5319.401793 61.609 80.2690
5357.948371 62.209 103.3330
5396.774274 62.646 121.6226
5435.881525 62.175 134.5728
5475.272163 61.052 149.9570
5514.948243 60.368 -167.2515
5554.911831 61.304 -127.9634
5595.165012 62.727 -99.8613
5635.709884 63.653 -81.3604
5676.548561 63.552 -69.9814
5717.683172 62.936 -49.3936
5759.115861 62.887 -15.7949
5800.848789 63.184 13.0596
5842.884130 63.889 48.9707
5885.224077 65.054 73.7500
5927.870837 65.641 87.2754
5970.826633 65.452 103.1362
6014.093704 64.745 124.6006
6057.674306 64.338 154.1240
6101.570711 64.830 -174.3301
6145.785208 65.515 -150.6436
6190.320101 65.537 -131.0957
6235.177712 65.472 -107.6694
6280.360380 65.509 -88.5581
6325.870460 65.237 -63.1670
6371.710325 65.324 -34.3364
6417.882365 65.373 -16.0215
6464.388986 64.793 5.4956
6511.232613 64.008 30.2632
6558.415689 63.224 55.9888
6605.940673 62.764 88.2549
6653.810042 62.688 119.9990
6702.026292 62.660 147.4756
6750.591937 62.674 175.8652
6799.509509 62.330 -158.5928
6848.781558 61.593 -125.3306
6898.410653 61.532 -90.1675
6948.399380 61.961 -61.4692
6998.750346 62.212 -28.8525
7049.466176 62.375 -3.4194
7100.549514 62.298 17.6465
7152.003023 62.178 41.3589
7203.829385 62.070 64.4683
7256.031302 61.569 96.3286
7308.611496 61.238 146.1782
7361.572708 61.592 173.5698
7414.917698 62.045 -161.2646
7468.649249 61.753 -94.1255
7522.770160 61.529 18.6924
7577.283253 62.062 29.8462
7632.191371 62.639 48.8511
7687.497376 63.278 75.6685
7743.204151 63.844 106.7412
7799.314600 64.470 136.1987
7855.831649 64.555 155.0928
7912.758244 63.779 -178.4824
7970.097352 62.833 -142.5073
8027.851962 62.491 -91.2412
8086.025087 63.072 -53.6787
8144.619758 63.874 -23.5596
8203.639030 64.620 5.3691
8263.085980 65.017 43.9258
8322.963708 65.613 80.9248
8383.275334 66.149 105.9700
8444.024002 66.153 128.7551
8505.212881 65.519 155.0920
8566.845160 64.893 -163.5305
8628.924051 64.594 -125.6401
8691.452792 64.160 -93.6492
8754.434642 63.634 -61.8044
8817.872884 63.517 -21.3274
8881.770826 63.884 11.8630
8946.131799 64.126 40.0964
9010.959157 63.686 62.2771
9076.256282 62.172 91.3708
9142.026576 60.775 148.5693
9208.273470 60.433 -151.6130
9275.000415 60.201 -98.7854
9342.210891 59.879 -32.7810
9409.908403 59.731 4.2686
9478.096478 59.804 33.8523
9546.778672 59.395 69.1550
9615.958566 58.804 127.6172
9685.639765 59.225 -142.7427
9755.825904 60.296 -88.0688
9826.520640 61.023 -56.3828
9897.727659 61.499 -20.2759
9969.450674 62.255 16.7051
10041.693423 62.862 51.3984
10114.459673 62.889 88.4607
10187.753217 63.036 135.2209
10261.577877 63.659 177.8486
10335.937500 64.023 -148.3657
10410.835964 63.876 -110.9258
10486.277173 63.806 -68.3992
10562.265060 63.928 -29.8975
10638.803587 63.586 4.8247
10715.896743 62.927 49.8784
10793.548548 62.495 103.5759
10871.763050 61.905 148.9836
10950.544327 61.150 -161.0095
11029.896485 60.985 -111.3357
11109.823662 60.743 -74.1843
11190.330024 59.611 -38.4753
11271.419768 58.054 12.5835
11353.097122 57.263 71.7002
11435.366344 57.622 160.6880
11518.231722 58.764 -112.6929
11601.697577 59.846 -72.1926
11685.768261 60.376 -32.8413
11770.448155 60.779 10.9365
11855.741674 61.061 56.3959
11941.653265 60.989 102.7317
12028.187408 60.580 151.2699
12115.348612 59.972 -160.0885
12203.141422 59.154 -108.8254
12291.570415 58.378 -51.7690
12380.640201 58.121 7.4835
12470.355424 58.204 61.1945
12560.720760 58.347 115.7717
12651.740920 58.824 177.1898
12743.420650 59.303 -127.0132
12835.764729 59.534 -71.6125
12928.777972 60.066 -11.7681
13022.465227 60.744 43.1842
13116.831378 60.916 95.0125
13211.881345 60.571 153.5310
13307.620084 60.285 -143.4496
13404.052584 60.457 -82.2468
13501.183875 60.890 -25.3235
13599.019019 61.175 29.7710
13697.563116 61.537 90.6210
13796.821305 61.925 147.2217
13896.798760 61.947 -158.4420
13997.500692 61.884 -100.6280
14098.932352 61.847 -45.4852
14201.099028 61.526 9.3915
14304.006046 61.015 67.2006
14407.658770 60.394 124.5692
14512.062604 59.608 -176.4727
14617.222992 58.658 -114.9504
14723.145416 57.554 -49.0810
14829.835397 56.790 23.5500
14937.298497 56.799 93.6899
15045.540320 57.173 159.9204
15154.566507 57.461 -138.5794
15264.382743 57.202 -80.7680
15374.994752 56.309 -18.3383
15486.408302 55.399 49.7400
15598.629201 54.932 119.9762
15711.663298 55.030 -170.5287
15825.516487 55.057 -108.8533
15940.194703 54.684 -46.9999
16055.703925 53.986 10.4631
16172.050174 52.515 65.6071
16289.239516 50.733 118.3043
16407.278061 49.394 144.3198
16526.171961 48.836 105.9139
16645.927415 49.562 145.6479
16766.550667 50.752 -158.6661
16888.048005 51.685 -93.3578
17010.425762 52.822 -21.0540
17133.690320 54.135 48.7186
17257.848103 55.216 114.5530
17382.905584 55.440 176.4154
17508.869284 54.755 -116.7816
17635.745768 53.759 -44.3406
17763.541652 52.816 33.6827
17892.263597 51.939 113.6188
18021.918315 51.186 -160.3322
18152.512564 51.118 -72.3049
18284.053153 51.481 10.0906
18416.546939 51.723 89.4243
18550.000830 52.013 174.9329
18684.421783 52.874 -97.6765
18819.816805 53.933 -18.2737
18956.192956 54.522 55.2036
19093.557344 54.421 128.6787
19231.917131 53.917 -155.4941
19371.279531 53.157 -78.9707
19511.651807 52.091 -2.1548
19653.041280 50.645 77.1528
19795.455318 49.155 160.8154
19938.901348 48.249 -116.0583
