* Measurement data measured by REW V5.31
* Source: Scarlett 2i4 USB, MICROPHONE, R, volume: no control. Timing signal peak level -27.5 dBFS, measurement signal peak level -19.3 dBFS
* Format: 512k Log Swept Sine, 1 sweep at -18.0 dBFS using an acoustic timing reference
* Dated: Apr 16, 2024 8:36:20 AM
* REW Settings:
*  C-weighting compensation: Off
*  Target level: 75.0 dB
* Note: ; Delay 0.2654 ms (91 mm, 3.58 in) using estimated IR delay relative to Acoustic reference played from SPEAKER L with no timing offset
* Measurement: rug-p2-c
* Smoothing: 1/48 octave
* Frequency Step: 96 ppo
* Start Frequency: 10.093689 Hz
*
* Freq(Hz) SPL(dB) Phase(degrees)
10.093689 29.287 18.4682
10.166832 29.367 16.1064
10.240505 29.464 13.6417
10.314712 29.563 11.2152
10.389457 29.655 8.9699
10.464743 29.710 7.0048
10.540575 29.707 5.1045
10.616956 29.666 3.3094
10.693891 29.601 1.7497
10.771383 29.520 0.5818
10.849437 29.412 -0.1879
10.928057 29.280 -0.6270
11.007246 29.156 -0.7023
11.087009 29.069 -0.3747
11.167350 29.029 0.4496
11.248273 29.024 1.8100
11.329783 29.076 3.4952
11.411883 29.213 5.2456
11.494578 29.462 6.9391
11.577873 29.818 8.7704
11.661771 30.253 10.4032
11.746277 30.736 11.5184
11.831395 31.259 12.0102
11.917130 31.835 12.1772
12.003487 32.436 11.9314
12.090469 33.027 11.1794
12.178081 33.589 9.9062
12.266329 34.135 8.2835
12.355216 34.658 6.3914
12.444747 35.143 4.2635
12.534926 35.588 1.8395
12.625760 35.994 -0.8328
12.717251 36.361 -3.6035
12.809406 36.687 -6.3873
12.902228 36.970 -9.3580
12.995723 37.212 -12.4399
13.089895 37.414 -15.4602
13.184750 37.577 -18.3761
13.280292 37.698 -21.3843
13.376526 37.782 -24.3432
13.473458 37.832 -27.0789
13.571093 37.847 -29.6908
13.669434 37.830 -32.2194
13.768489 37.790 -34.5375
13.868261 37.732 -36.5511
13.968756 37.654 -38.3450
14.069979 37.571 -39.9157
14.171936 37.497 -41.2188
14.274632 37.430 -42.1899
14.378072 37.381 -42.9266
14.482261 37.364 -43.5524
14.587206 37.387 -43.9827
14.692910 37.444 -44.2717
14.799381 37.536 -44.6244
14.906624 37.665 -45.0755
15.014643 37.826 -45.5667
15.123446 38.000 -46.2094
15.233036 38.179 -47.0756
15.343421 38.363 -48.1015
15.454606 38.536 -49.2240
15.566596 38.686 -50.4594
15.679398 38.815 -51.8210
15.793018 38.920 -53.1367
15.907460 38.996 -54.3546
16.022732 39.045 -55.5383
16.138840 39.079 -56.5238
16.255788 39.101 -57.2284
16.373585 39.118 -57.7137
16.492234 39.154 -57.9605
16.611744 39.218 -57.8933
16.732119 39.316 -57.6089
16.853367 39.466 -57.3078
16.975494 39.675 -56.9127
17.098505 39.931 -56.5917
17.222408 40.224 -56.5769
17.347209 40.555 -56.7699
17.472914 40.894 -57.2441
17.599530 41.224 -58.0831
17.727063 41.541 -59.1940
17.855521 41.822 -60.4443
17.984909 42.060 -61.9141
18.115235 42.254 -63.4351
18.246506 42.398 -64.8093
18.378727 42.494 -66.1488
18.511907 42.555 -67.1934
18.646052 42.585 -67.8698
18.781169 42.603 -68.2064
18.917265 42.640 -68.0789
19.054347 42.702 -67.4897
19.192423 42.822 -66.6401
19.331499 43.016 -65.5183
19.471583 43.281 -64.3306
19.612682 43.617 -63.3545
19.754804 44.013 -62.5389
19.897956 44.438 -62.0915
20.042144 44.882 -61.9923
20.187378 45.324 -62.1612
20.333664 45.750 -62.5938
20.481010 46.159 -63.1923
20.629424 46.549 -63.8378
20.778913 46.925 -64.5439
20.929486 47.298 -65.2312
21.081150 47.673 -65.8924
21.233912 48.059 -66.6195
21.387782 48.460 -67.3774
21.542767 48.871 -68.2974
21.698874 49.289 -69.4153
21.856113 49.701 -70.7270
22.014492 50.093 -72.3034
22.174018 50.455 -74.0422
22.334700 50.771 -75.9033
22.496546 51.039 -77.8242
22.659566 51.253 -79.5960
22.823766 51.420 -81.2367
22.989157 51.554 -82.4685
23.155745 51.669 -83.3423
23.323542 51.802 -83.7197
23.492554 51.969 -83.6609
23.662790 52.208 -83.3418
23.834261 52.523 -82.8372
24.006973 52.915 -82.5331
24.180938 53.368 -82.4358
24.356163 53.848 -82.7999
24.532658 54.334 -83.5066
24.710431 54.795 -84.5397
24.889493 55.226 -85.7301
25.069853 55.621 -86.9117
25.251519 55.998 -87.9673
25.434502 56.376 -88.7463
25.618811 56.791 -89.3353
25.804456 57.266 -89.6932
25.991445 57.823 -90.2253
26.179790 58.460 -90.9544
26.369500 59.152 -92.3586
26.560584 59.872 -94.3643
26.753053 60.576 -97.1942
26.946917 61.234 -100.6423
27.142185 61.817 -104.7397
27.338869 62.305 -109.1660
27.536977 62.687 -113.9296
27.736522 62.956 -118.6584
27.937512 63.116 -123.2847
28.139959 63.173 -127.5716
28.343872 63.152 -131.2704
28.549264 63.074 -134.2923
28.756143 62.994 -136.4083
28.964522 62.961 -137.7256
29.174411 63.029 -138.2571
29.385821 63.241 -138.5544
29.598763 63.600 -138.8779
29.813248 64.081 -139.7855
30.029287 64.628 -141.5051
30.246891 65.195 -144.0714
30.466073 65.725 -147.5023
30.686842 66.187 -151.5566
30.909212 66.559 -156.1628
31.133193 66.823 -161.0242
31.358797 66.973 -165.9513
31.586035 67.007 -170.8319
31.814921 66.933 -175.2987
32.045465 66.768 -179.2016
32.277680 66.538 177.6579
32.511577 66.293 175.5210
32.747169 66.096 174.3153
32.984469 66.001 173.9305
33.223488 66.055 173.9618
33.464239 66.251 173.8202
33.706735 66.551 173.2282
33.950987 66.900 171.9913
34.197010 67.243 170.2030
34.444816 67.558 168.1492
34.694417 67.849 166.0333
34.945827 68.143 164.0731
35.199059 68.487 162.2728
35.454126 68.912 160.3607
35.711041 69.425 158.0359
35.969818 70.001 154.9559
36.230470 70.584 150.8211
36.493011 71.116 145.6768
36.757455 71.548 139.6811
37.023814 71.845 133.0086
37.292104 71.984 125.9378
37.562338 71.958 118.8513
37.834530 71.773 112.0133
38.108695 71.447 105.6665
38.384846 71.011 100.0640
38.662999 70.508 95.4112
38.943167 69.995 91.7153
39.225365 69.520 88.8009
39.509608 69.112 86.4011
39.795911 68.772 84.2188
40.084289 68.481 82.0280
40.374756 68.208 79.7613
40.667328 67.929 77.5175
40.962020 67.639 75.4729
41.258848 67.352 73.7781
41.557827 67.096 72.5092
41.858972 66.908 71.6270
42.162299 66.819 70.9493
42.467824 66.851 70.1595
42.775564 66.999 68.8631
43.085533 67.231 66.6853
43.397749 67.491 63.3710
43.712227 67.713 58.8441
44.028983 67.834 53.2077
44.348036 67.800 46.6907
44.669400 67.571 39.6012
44.993093 67.116 32.3022
45.319131 66.418 25.2097
45.647532 65.468 18.8135
45.978313 64.275 13.7101
46.311491 62.879 10.6283
46.647083 61.374 10.3625
46.985107 59.940 13.4128
47.325581 58.821 19.1970
47.668521 58.180 25.6690
48.013947 57.962 30.6189
48.361876 57.950 33.2058
48.712326 57.933 33.8176
49.065315 57.784 33.2793
49.420863 57.452 32.4386
49.778987 56.937 32.0768
50.139706 56.284 32.8983
50.503039 55.578 35.4626
50.869005 54.945 39.9768
51.237623 54.515 46.0174
51.608912 54.358 52.5894
51.982891 54.447 58.7961
52.359580 54.721 64.4961
52.739000 55.172 70.1786
53.121168 55.883 76.0992
53.506106 56.924 81.3737
53.893833 58.226 84.3330
54.284370 59.588 83.9275
54.677737 60.803 80.3275
55.073955 61.737 74.4347
55.473043 62.330 67.3243
55.875024 62.583 60.0103
56.279917 62.536 53.3348
56.687745 62.276 47.9877
57.098527 61.924 44.2775
57.512287 61.592 41.9370
57.929045 61.336 40.3083
58.348822 61.144 38.8538
58.771642 60.973 37.4563
59.197525 60.805 36.3045
59.626495 60.655 35.5179
60.058573 60.535 35.0158
60.493782 60.440 34.7050
60.932145 60.362 34.7100
61.373685 60.319 35.2699
61.818424 60.353 36.4626
62.266386 60.504 38.1752
62.717593 60.814 40.5024
63.172071 61.393 43.8748
63.629842 62.411 48.0134
64.090930 63.898 50.9391
64.555359 65.633 50.3128
65.023154 67.327 45.7423
65.494339 68.824 38.4443
65.968938 70.112 29.8325
66.446976 71.280 20.8108
66.928478 72.433 11.4807
67.413469 73.610 1.2293
67.901975 74.749 -10.6028
68.394021 75.736 -24.2209
68.889632 76.477 -39.2640
69.388835 76.925 -54.9476
69.891655 77.084 -70.6327
70.398118 77.002 -85.5405
70.908252 76.755 -99.3018
71.422083 76.436 -111.6989
71.939636 76.130 -122.8699
72.460941 75.895 -133.1277
72.986023 75.757 -142.8126
73.514909 75.721 -152.2195
74.047629 75.783 -161.5418
74.584208 75.939 -170.9532
75.124676 76.184 179.2439
75.669061 76.482 168.6195
76.217390 76.749 156.7847
76.769692 76.874 143.7619
77.325997 76.756 129.9556
77.886333 76.340 116.2136
78.450730 75.632 103.3542
79.019216 74.689 92.0913
79.591822 73.604 82.7317
80.168577 72.462 75.1746
80.749512 71.317 69.3038
81.334656 70.224 65.2167
81.924040 69.279 62.9011
82.517696 68.592 61.6823
83.115653 68.201 60.4235
83.717943 68.058 58.2188
84.324598 68.064 54.4475
84.935649 68.090 48.6562
85.551128 67.988 40.8861
86.171066 67.653 31.7337
86.795497 67.057 21.8264
87.424453 66.227 11.1133
88.057967 65.165 -1.3077
88.696071 63.826 -16.8452
89.338800 62.237 -38.0043
89.986185 60.868 -71.4863
90.638262 60.977 -124.3256
91.295065 63.134 -169.0378
91.956626 66.253 165.0525
92.622982 69.428 145.6079
93.294166 72.230 125.3528
93.970214 74.401 101.9536
94.651161 75.784 75.8142
95.337042 76.299 48.2411
96.027894 75.908 20.7446
96.723752 74.607 -4.9938
97.424652 72.431 -26.9797
98.130631 69.471 -42.9573
98.841726 65.880 -50.7947
99.557974 61.895 -46.9966
100.279412 58.286 -19.9796
101.006078 57.167 17.4447
101.738010 58.808 31.3319
102.475245 61.171 32.7046
103.217823 63.439 27.2274
103.965782 65.362 15.6184
104.719161 66.754 -1.1198
105.477999 67.523 -21.0288
106.242336 67.715 -41.9847
107.012212 67.507 -62.5999
107.787666 67.117 -82.8839
108.568740 66.637 -103.7842
109.355474 65.958 -125.4386
110.147909 64.924 -145.8499
110.946086 63.638 -160.9945
111.750047 62.756 -167.8171
112.559834 63.034 -170.6653
113.375489 64.206 -176.7445
114.197055 65.550 173.0946
115.024574 66.683 160.3418
115.858089 67.467 146.4323
116.697645 67.891 132.5747
117.543284 67.990 119.5809
118.395051 67.806 108.1115
119.252990 67.430 99.1368
120.117147 67.035 93.2385
120.987565 66.794 89.6021
121.864291 66.737 86.5793
122.747370 66.778 83.5925
123.636848 66.974 82.1615
124.532771 67.715 84.3011
125.435187 69.266 86.3395
126.344142 71.147 80.8108
127.259684 72.715 67.0499
128.181860 73.616 47.9030
129.110718 73.685 26.2397
130.046308 72.856 5.4570
130.988677 71.292 -9.6334
131.937875 69.714 -15.1234
132.893951 69.266 -18.1194
133.856956 70.070 -28.9900
134.826938 71.354 -48.7911
135.803950 72.557 -76.3903
136.788041 73.401 -109.3850
137.779264 73.795 -144.4143
138.777669 73.682 -178.5699
139.783309 72.961 150.7018
140.796237 71.628 126.7281
141.816504 70.027 112.7064
142.844165 68.849 106.9862
143.879273 68.503 103.8494
144.921881 68.792 100.1095
145.972045 69.315 94.6090
147.029819 69.773 87.5060
148.095257 70.003 79.5741
149.168417 69.966 72.4749
150.249353 69.825 68.0803
151.338121 69.868 66.4514
152.434780 70.340 66.1432
153.539385 71.291 64.8671
154.651995 72.526 60.0726
155.772667 73.738 50.5104
156.901460 74.674 36.4109
158.038432 75.101 17.7511
159.183644 74.727 -4.5308
160.337154 73.353 -26.9249
161.499023 71.105 -45.8510
162.669312 68.649 -65.2589
163.848081 67.380 -103.5366
165.035392 68.165 -176.0903
166.231306 69.761 130.2551
167.435887 71.007 97.1265
168.649196 71.769 74.0344
169.871298 72.316 57.3071
171.102255 72.779 42.4470
172.342133 72.897 25.1526
173.590995 72.224 5.7297
174.848907 70.506 -10.4329
176.115934 67.980 -11.9783
177.392143 65.954 16.0925
178.677599 65.865 31.0269
179.972371 66.508 26.7720
181.276525 66.719 19.4866
182.590129 66.444 14.6343
183.913252 66.113 15.3560
185.245964 66.164 15.2725
186.588332 66.535 10.4504
187.940428 67.598 37.7739
189.302322 69.298 58.1396
190.674085 70.411 42.4539
192.055788 70.632 27.1094
193.447503 70.452 17.7881
194.849303 70.093 8.6843
196.261262 69.225 -1.6470
197.683452 67.834 -4.8044
199.115948 67.340 9.8430
200.558824 69.472 42.0283
202.012156 72.580 51.5476
203.476019 74.791 35.1121
204.950490 75.530 10.0459
206.435646 74.795 -12.7805
207.931564 72.943 -24.6653
209.438322 70.748 -22.8086
210.955998 69.119 -17.7507
212.484672 68.534 -13.7515
214.024424 69.693 4.4224
215.575333 72.550 27.4202
217.137481 75.473 22.2942
218.710948 77.584 3.4634
220.295818 78.732 -20.6494
221.892172 78.835 -47.8345
223.500094 77.697 -75.0366
225.119668 75.280 -95.1768
226.750978 71.928 -102.4255
228.394109 68.731 -102.9910
230.049147 67.960 -61.2949
231.716178 69.485 3.4182
233.395289 70.793 -20.6206
235.086567 71.221 -44.8704
236.790102 71.161 -66.9917
238.505980 70.780 -95.0869
240.234293 69.827 -138.7009
241.975130 68.685 119.5269
243.728581 68.628 47.7759
245.494739 69.828 21.0681
247.273695 71.108 0.5923
249.065542 71.571 -20.5278
250.870374 71.101 -37.9038
252.688284 69.999 -49.0798
254.519367 68.665 -54.1125
256.363720 67.872 -45.4028
258.221437 68.604 -29.8735
260.092616 70.061 -31.8804
261.977354 71.030 -44.3943
263.875750 71.263 -57.7930
265.787903 71.301 -63.1956
267.713911 71.813 -66.2532
269.653877 72.326 -80.8462
271.607900 72.214 -101.7146
273.576083 71.231 -126.4736
275.558528 69.102 -148.1145
277.555338 65.957 -130.1284
279.566619 63.217 -93.5415
281.592474 63.385 -31.8604
283.633009 65.316 -32.0735
285.688331 66.691 -51.2866
287.758546 67.262 -68.1301
289.843763 67.069 -85.9814
291.944090 65.849 -101.5327
294.059638 63.947 -104.3018
296.190515 62.415 -99.5715
298.336833 61.730 -105.3254
300.498705 61.656 -92.6909
302.676243 62.397 -44.5449
304.869559 63.168 -57.9138
307.078770 63.142 -76.3203
309.303989 62.233 -89.9270
311.545334 61.283 -85.0266
313.802919 62.256 -53.2356
316.076865 64.836 -42.3491
318.367288 66.972 -54.7764
320.674309 67.736 -78.4900
322.998047 67.255 -98.4839
325.338624 66.242 -112.2830
327.696162 65.265 -123.3091
330.070783 64.692 -133.6470
332.462612 64.068 -158.8484
334.871773 62.569 163.6343
337.298392 60.692 -30.6763
339.742595 59.616 -66.1416
342.204510 59.402 -85.5833
344.684265 59.982 -92.5488
347.181989 61.174 -100.6167
349.697813 61.886 -122.6841
352.231868 61.399 -151.0732
354.784285 59.715 -177.9590
357.355198 57.525 164.3931
359.944741 56.867 175.8713
362.553049 58.274 165.4314
365.180258 59.479 128.8677
367.826505 60.102 96.9360
370.491927 61.002 75.2954
373.176665 62.263 56.8052
375.880856 63.230 36.3792
378.604644 63.433 16.0476
381.348169 63.464 11.8291
384.111575 64.628 20.9377
386.895006 66.493 13.0623
389.698607 67.988 -4.2539
392.522524 68.660 -26.3228
395.366904 68.214 -50.9233
398.231895 66.751 -68.3237
401.117648 65.710 -43.9856
404.024312 66.550 -20.9155
406.952038 67.745 -37.9568
409.900981 68.245 -58.7612
412.871292 68.003 -79.0996
415.863128 67.127 -97.4780
418.876643 66.064 -113.6487
421.911996 65.129 -137.9995
424.969344 64.009 -174.7385
428.048847 63.138 -37.2429
431.150666 63.284 -91.0859
434.274961 63.974 71.0757
437.421897 64.710 22.4836
440.591636 65.692 -4.6018
443.784345 67.100 -23.2788
447.000189 67.952 -51.5212
450.239337 67.367 -84.7839
453.501956 65.652 -91.9248
456.788219 64.985 5.4890
460.098294 66.283 -8.8398
463.432356 67.705 -27.0618
466.790578 68.875 -39.7837
470.173135 70.054 -50.7554
473.580203 70.921 -66.6941
477.011961 70.891 -87.0601
480.468586 69.803 -100.2024
483.950259 68.574 -100.7283
487.457163 68.173 -102.3887
490.989478 68.546 -104.4282
494.547390 69.155 -113.1553
498.131084 69.373 -129.0713
501.740748 68.912 -148.0347
505.376568 68.025 -157.8257
509.038735 68.006 -133.2615
512.727439 69.102 -136.9492
516.442874 70.224 -157.6873
520.185232 70.876 176.9299
523.954708 70.773 148.0867
527.751500 69.964 123.1223
531.575805 69.441 105.6365
535.427822 69.420 77.7302
539.307753 68.900 42.8230
543.215800 67.676 11.4651
547.152165 66.240 -11.9858
551.117055 64.932 -37.0618
555.110677 63.411 -59.0911
559.133237 62.176 -60.5994
563.184947 62.338 -57.9534
567.266018 63.554 -73.2151
571.376661 64.530 -103.0369
575.517092 64.680 -143.8445
579.687526 65.025 -166.8730
583.888181 66.347 -68.8625
588.119275 67.630 -125.3184
592.381030 68.225 172.4307
596.673667 68.097 112.6997
600.997410 67.868 65.9419
605.352485 68.104 33.5413
609.739119 68.719 6.9546
614.157540 69.315 -16.2122
618.607979 69.977 -35.2991
623.090667 70.622 -54.9810
627.605839 71.081 -76.9316
632.153730 70.856 -104.3059
636.734576 69.514 -128.2512
641.348617 68.158 -110.3186
645.996094 68.510 -90.2996
650.677248 69.077 -114.1326
655.392323 68.634 -130.7339
660.141566 67.726 -137.5596
664.925224 66.373 -152.3350
669.743546 65.156 -150.7322
674.596784 65.534 -148.7612
679.485191 66.691 -163.3594
684.409020 67.734 -175.9070
689.368530 68.340 164.7124
694.363979 67.711 135.9714
699.395626 66.138 123.6152
704.463736 65.185 117.8855
709.568570 65.343 106.4419
714.710396 66.280 97.7175
719.889483 67.033 73.4612
725.106099 67.322 48.6567
730.360516 68.359 38.5176
735.653010 70.987 38.9326
740.983855 73.858 17.0996
746.353329 75.784 -17.6611
751.761713 76.210 -58.2188
757.209288 75.147 -95.7275
762.696339 73.249 -123.6914
768.223151 71.746 -145.3633
773.790013 71.041 -178.5547
779.397214 70.147 144.0215
785.045047 70.036 132.9468
790.733808 71.965 105.9893
796.463791 74.016 50.6992
802.235296 74.842 -7.5796
808.048623 74.061 -59.5679
813.904077 72.040 -99.0640
819.801961 69.760 -124.2925
825.742584 68.615 -129.0405
831.726255 69.233 -158.5083
837.753287 70.058 145.7725
843.823992 70.491 75.3853
849.938689 70.629 4.1646
856.097695 70.200 -59.0747
862.301332 69.231 -112.5156
868.549922 68.521 -41.5508
874.843793 68.505 -53.4292
881.183272 69.043 -8.3257
887.568689 69.510 -43.6973
894.000378 69.173 -87.7979
900.478673 68.308 -129.0137
907.003913 68.050 -168.8169
913.576437 69.206 -12.0864
920.196588 69.945 -63.9941
926.864712 69.237 -96.4814
933.581156 68.454 -103.6113
940.346270 68.743 -123.5410
947.160407 68.971 -152.7832
954.023921 67.774 -177.0049
960.937172 65.518 -121.3877
967.900519 63.580 -128.2549
974.914325 62.402 -112.2466
981.978956 62.472 -30.5273
989.094780 65.005 -41.2764
996.262169 68.666 -59.8677
1003.481495 71.517 -89.8633
1010.753136 72.467 -134.9277
1018.077470 71.295 -178.4170
1025.454879 69.325 140.4424
1032.885748 68.441 -38.8818
1040.370463 68.248 -80.6177
1047.909417 67.862 -117.1543
1055.503000 67.047 -141.5981
1063.151610 67.058 -137.1050
1070.855645 68.236 -149.1240
1078.615506 68.918 -178.3540
1086.431599 68.997 159.2549
1094.304330 68.925 124.9932
1102.234110 68.451 66.6816
1110.221353 67.345 -48.1133
1118.266475 65.848 -148.2026
1126.369895 65.475 -93.0239
1134.532035 66.334 -128.7817
1142.753322 66.685 -179.9126
1151.034184 66.149 128.7207
1159.375052 65.306 70.7158
1167.776361 64.728 41.8486
1176.238550 64.442 35.8613
1184.762060 64.150 -8.4414
1193.347334 64.119 -17.9214
1201.994821 64.196 -48.9971
1210.704971 64.030 -74.2529
1219.478238 64.685 -85.2222
1228.315080 65.875 -102.1279
1237.215957 66.855 -122.3735
1246.181334 67.393 -146.8071
1255.211678 67.365 -171.8887
1264.307459 66.438 164.7617
1273.469152 64.523 154.9556
1282.697235 62.728 159.7310
1291.992188 62.541 156.8618
1301.354495 63.490 135.2002
1310.784647 64.015 96.2598
1320.283132 63.464 46.9741
1329.850448 62.874 2.9004
1339.487093 63.655 -35.1064
1349.193569 64.752 -80.7373
1358.970381 65.235 -122.9414
1368.818041 64.675 -156.7056
1378.737061 63.434 176.7349
1388.727958 61.861 156.3467
1398.791253 61.049 147.7207
1408.927471 62.487 -109.8638
1419.137140 64.233 -120.4346
1429.420793 64.709 -159.0444
1439.778965 64.065 162.5010
1450.212197 62.620 129.0635
1460.721033 61.668 -81.5122
1471.306019 62.051 -109.5430
1481.967709 63.322 -128.7349
1492.706658 65.028 -139.4463
1503.523426 66.621 -153.5273
1514.418576 67.643 -175.5869
1525.392678 67.957 162.3755
1536.446302 68.223 155.6045
1547.580025 69.065 147.1670
1558.794428 69.416 122.5864
1570.090095 68.933 99.5146
1581.467615 68.147 78.0591
1592.927581 67.658 60.3330
1604.470591 67.110 19.7397
1616.097246 66.180 -63.7710
1627.808153 66.252 -148.3252
1639.603922 67.124 169.6255
1651.485168 67.431 142.6997
1663.452510 67.387 122.3140
1675.506573 67.676 100.1787
1687.647984 68.202 81.8901
1699.877377 68.697 70.0005
1712.195390 68.668 53.1660
1724.602663 68.303 34.6978
1737.099845 68.069 88.8511
1749.687587 67.951 129.7334
1762.366544 68.147 108.6582
1775.137379 69.103 94.9409
1788.000756 69.837 75.5610
1800.957346 69.539 60.4370
1814.007826 68.676 48.7969
1827.152874 67.812 22.7266
1840.393177 66.683 -8.2949
1853.729425 65.902 -2.9917
1867.162312 66.252 91.3774
1880.692540 67.461 67.9087
1894.320813 68.537 41.5156
1908.047843 69.595 25.9575
1921.874344 71.740 27.0381
1935.801038 73.534 8.1240
1949.828650 73.565 -35.9609
1963.957912 72.318 -4.1108
1978.189561 71.361 0.5591
1992.524338 70.761 -47.2593
2006.962991 69.723 -102.2661
2021.506272 69.072 94.2954
2036.154940 69.337 23.5767
2050.909758 69.998 -15.1206
2065.771495 71.211 -60.2690
2080.740927 72.371 -126.5786
2095.818833 72.995 154.0112
2111.006001 73.273 84.8999
2126.303220 73.141 33.3320
2141.711290 72.221 0.4712
2157.231013 71.021 -20.7437
2172.863198 70.505 -43.2954
2188.608660 70.305 -75.1816
2204.468221 69.930 -113.7788
2220.442706 70.785 -168.2310
2236.532950 72.248 107.1060
2252.739789 72.471 38.2065
2269.064070 71.801 -11.1738
2285.506644 71.386 -61.7681
2302.068367 71.358 -148.5010
2318.750104 71.994 87.3574
2335.552723 72.687 49.8789
2352.477101 73.105 21.0166
2369.524119 73.140 -7.4961
2386.694668 72.484 -40.9189
2403.989641 71.341 -62.9531
2421.409941 70.270 -45.5449
2438.956476 69.570 -49.1943
2456.630160 69.536 -70.4023
2474.431915 70.889 -58.9922
2492.362668 72.887 -13.5361
2510.423356 74.236 -46.7549
2528.614918 74.555 -50.3193
2546.938304 74.783 -41.3125
2565.394469 74.872 -73.3955
2583.984375 74.482 -105.7891
2602.708991 73.621 -123.4961
2621.569293 72.522 -124.6650
2640.566265 71.768 -80.8535
2659.700897 71.276 -91.8369
2678.974186 70.725 -114.2646
2698.387137 70.374 -113.5469
2717.940763 71.080 -66.5811
2737.636082 72.251 -67.2236
2757.474121 72.842 -92.4160
2777.455915 72.669 -116.2275
2797.582506 72.361 -130.8496
2817.854942 72.338 -142.0410
2838.274281 72.231 -133.9678
2858.841586 71.931 -137.8506
2879.557931 71.290 -155.0566
2900.424394 70.233 -158.1748
2921.442065 69.747 -156.0381
2942.612039 70.371 -142.5430
2963.935418 71.474 -128.7598
2985.413316 72.144 -150.2822
3007.046852 72.259 -168.1729
3028.837153 72.776 -157.1982
3050.785356 73.447 -174.0625
3072.892604 73.175 155.9385
3095.160050 72.237 139.5205
3117.588856 71.418 168.5264
3140.180190 70.846 172.8955
3162.935230 70.197 151.4258
3185.855163 69.573 140.5859
3208.941182 70.010 157.8154
3232.194493 71.325 171.0068
3255.616307 72.109 162.7285
3279.207844 71.608 136.0449
3302.970336 70.274 118.2158
3326.905021 68.980 105.1367
3351.013146 67.548 89.6602
3375.295969 66.414 104.4893
3399.754755 66.557 145.5186
3424.390779 67.614 138.1162
3449.205326 68.904 122.3652
3474.199690 69.383 116.3066
3499.375173 69.094 113.0654
3524.733088 68.443 84.9199
3550.274757 68.057 51.3193
3576.001511 68.414 86.1309
3601.914692 69.038 125.6084
3628.015651 69.133 112.2354
3654.305748 69.020 150.5938
3680.786354 69.395 119.1025
3707.458849 69.334 79.5986
3734.324624 68.948 60.2344
3761.385080 69.190 152.8467
3788.641627 69.863 127.1621
3816.095686 70.172 110.3750
3843.748688 70.241 104.8994
3871.602076 70.171 99.3613
3899.657300 69.854 91.5898
3927.915825 69.238 88.2021
3956.379122 69.062 67.2705
3985.048676 69.934 43.2432
4013.925981 70.948 152.7998
4043.012544 71.257 129.7227
4072.309879 70.679 97.4365
4101.819515 69.995 80.6289
4131.542990 69.843 70.8672
4161.481854 69.366 54.8955
4191.637667 68.303 57.1924
4222.012001 67.574 59.1562
4252.606441 68.080 54.5234
4283.422580 69.280 56.1055
4314.462026 70.408 57.2041
4345.726396 71.063 39.1553
4377.217321 71.094 24.8779
4408.936442 70.841 30.0781
4440.885413 70.512 16.5439
4473.065899 69.924 2.8770
4505.479579 69.745 26.6611
4538.128141 70.091 21.2100
4571.013288 70.187 -2.2871
4604.136735 69.893 -24.4619
4637.500207 69.562 -27.2256
4671.105446 69.763 5.9033
4704.954201 70.166 -7.2080
4739.048239 70.049 -33.0801
4773.389336 69.673 -44.4834
4807.979283 69.857 -24.0801
4842.819883 70.029 -45.9346
4877.912952 69.521 -67.3887
4913.260320 69.018 -21.6318
4948.863830 69.027 -36.5752
4984.725337 68.989 -60.4873
5020.846712 68.938 -69.4111
5057.229836 68.548 -83.8047
5093.876609 67.887 -79.9932
5130.788938 68.629 -27.6533
5167.968750 70.120 -37.2500
5205.417982 70.618 -73.6699
5243.138586 70.378 -109.5303
5281.132530 70.784 -78.8613
5319.401793 71.377 -80.3799
5357.948371 70.713 -115.0752
5396.774274 69.868 -45.3936
5435.881525 70.007 -61.5352
5475.272163 69.991 -95.6973
5514.948243 69.615 -98.6738
5554.911831 69.569 -74.9961
5595.165012 69.257 -93.7637
5635.709884 68.872 -105.0176
5676.548561 68.430 -118.9678
5717.683172 67.817 -122.1074
5759.115861 67.801 -108.6084
5800.848789 68.009 -114.9756
5842.884130 68.032 -121.1738
5885.224077 68.546 -119.8574
5927.870837 69.609 -128.7559
5970.826633 70.430 -142.5693
6014.093704 70.571 -140.8350
6057.674306 70.290 -144.3252
6101.570711 70.155 -163.0488
6145.785208 70.138 -179.8340
6190.320101 70.201 -177.8945
6235.177712 69.901 178.2402
6280.360380 69.287 172.7227
6325.870460 68.886 166.5479
6371.710325 68.589 153.5898
6417.882365 68.184 146.4912
6464.388986 68.359 145.8301
6511.232613 68.657 132.0664
6558.415689 68.338 122.8457
6605.940673 67.884 119.6289
6653.810042 68.363 125.3506
6702.026292 69.721 127.8965
6750.591937 70.248 106.7637
6799.509509 69.969 104.0518
6848.781558 69.838 108.2852
6898.410653 69.452 95.3975
6948.399380 69.249 93.0967
6998.750346 69.518 77.5742
7049.466176 69.537 68.2656
7100.549514 69.505 99.9297
7152.003023 69.379 86.0967
7203.829385 68.856 74.6934
7256.031302 68.182 66.0576
7308.611496 67.936 82.4355
7361.572708 67.733 71.6865
7414.917698 67.880 66.4893
7468.649249 69.056 60.2227
7522.770160 70.335 51.2695
7577.283253 71.321 51.3916
7632.191371 71.232 32.2344
7687.497376 70.304 23.6602
7743.204151 69.638 12.7646
7799.314600 69.566 6.0830
7855.831649 69.764 -4.2363
7912.758244 69.567 -11.7998
7970.097352 69.529 -16.3350
8027.851962 69.435 -28.5928
8086.025087 69.155 -38.2627
8144.619758 69.054 -47.1641
8203.639030 69.459 -53.2021
8263.085980 69.535 -70.6182
8322.963708 68.798 -85.8418
8383.275334 67.874 -96.0693
8444.024002 67.231 -94.9248
8505.212881 66.983 -94.4580
8566.845160 66.573 -97.7822
8628.924051 66.247 -95.0293
8691.452792 66.289 -99.0684
8754.434642 66.200 -108.8613
8817.872884 66.129 -109.0420
8881.770826 66.202 -107.0918
8946.131799 66.571 -104.7139
9010.959157 67.344 -110.1123
9076.256282 68.070 -113.5244
9142.026576 68.344 -127.8984
9208.273470 67.943 -144.0752
9275.000415 67.495 -147.2861
9342.210891 67.506 -152.3203
9409.908403 67.399 -167.5273
9478.096478 66.905 -178.3926
9546.778672 66.469 173.4443
9615.958566 66.435 167.5430
9685.639765 66.867 164.2188
9755.825904 67.487 154.8408
9826.520640 67.849 139.3203
9897.727659 67.866 129.8086
9969.450674 67.700 120.9072
10041.693423 67.552 107.8906
10114.459673 67.439 99.9893
10187.753217 67.482 97.6973
10261.577877 67.122 86.5908
10335.937500 66.388 84.5801
10410.835964 65.680 88.5088
10486.277173 65.501 83.1123
10562.265060 66.096 77.2520
10638.803587 66.873 73.9238
10715.896743 66.781 63.0088
10793.548548 66.052 63.7061
10871.763050 65.818 58.4160
10950.544327 65.857 47.7354
11029.896485 66.181 41.2500
11109.823662 66.748 30.0205
11190.330024 67.049 18.3057
11271.419768 66.991 9.3369
11353.097122 66.566 -4.6016
11435.366344 66.049 -18.6758
11518.231722 65.650 -32.1191
11601.697577 65.474 -42.5078
11685.768261 65.501 -46.5420
11770.448155 65.554 -51.8857
11855.741674 65.467 -60.2148
11941.653265 65.532 -66.4814
12028.187408 65.655 -74.1445
12115.348612 65.474 -80.7207
12203.141422 65.216 -86.8203
12291.570415 65.193 -91.9473
12380.640201 65.458 -98.8174
12470.355424 65.733 -110.7168
12560.720760 66.232 -118.8105
12651.740920 67.136 -128.8760
12743.420650 68.094 -140.5469
12835.764729 68.639 -157.4961
12928.777972 68.495 -174.6367
13022.465227 68.104 172.5098
13116.831378 67.708 159.3838
13211.881345 67.415 147.7568
13307.620084 67.469 133.0879
13404.052584 67.306 120.3984
13501.183875 66.851 110.8936
13599.019019 66.360 98.1143
13697.563116 65.912 84.3887
13796.821305 65.366 72.3145
13896.798760 64.849 64.9766
13997.500692 64.397 57.0605
14098.932352 64.071 55.2383
14201.099028 64.217 49.1523
14304.006046 64.563 39.3867
14407.658770 64.772 25.1641
14512.062604 64.784 11.7939
14617.222992 64.953 -1.4688
14723.145416 65.377 -16.0820
14829.835397 65.532 -32.8447
14937.298497 65.016 -51.6318
15045.540320 63.907 -70.2227
15154.566507 62.564 -85.0117
15264.382743 61.342 -95.6465
15374.994752 60.333 -103.6543
15486.408302 59.579 -110.0557
15598.629201 59.279 -116.8467
15711.663298 59.420 -125.8428
15825.516487 59.726 -135.8057
15940.194703 59.949 -147.7998
16055.703925 59.875 -162.0605
16172.050174 59.527 -176.3975
16289.239516 59.250 170.3008
16407.278061 59.259 157.1699
16526.171961 59.532 143.8408
16645.927415 59.655 128.1982
16766.550667 59.285 112.5039
16888.048005 58.640 100.4658
17010.425762 58.104 91.2969
17133.690320 57.790 80.1768
17257.848103 57.452 66.6592
17382.905584 56.868 52.1543
17508.869284 56.237 38.1299
17635.745768 55.737 22.9424
17763.541652 55.325 9.8262
17892.263597 54.720 -1.6299
18021.918315 53.831 -12.8838
18152.512564 52.927 -22.0039
18284.053153 52.371 -34.2285
18416.546939 52.136 -49.7373
18550.000830 51.755 -64.8730
18684.421783 50.940 -80.9102
18819.816805 49.903 -97.0947
18956.192956 49.074 -114.8330
19093.557344 48.376 -119.7695
19231.917131 47.758 -99.2744
19371.279531 47.300 -103.3271
19511.651807 46.347 -116.4805
19653.041280 45.268 -131.4805
19795.455318 44.534 -145.8691
19938.901348 44.178 -160.8496
