* Measurement data measured by REW V5.31
* Source: Scarlett 2i4 USB, MICROPHONE, R, volume: no control. Timing signal peak level -27.5 dBFS, measurement signal peak level -21.7 dBFS
* Format: 512k Log Swept Sine, 1 sweep at -18.0 dBFS using an acoustic timing reference
* Dated: Apr 16, 2024 8:35:26 AM
* REW Settings:
*  C-weighting compensation: Off
*  Target level: 75.0 dB
* Note: ; Delay -0.0104 ms (-3.6 mm, -0.14 in) using estimated IR delay relative to Acoustic reference played from SPEAKER L with no timing offset
* Measurement: rug-p2-l
* Smoothing: 1/48 octave
* Frequency Step: 96 ppo
* Start Frequency: 10.093689 Hz
*
* Freq(Hz) SPL(dB) Phase(degrees)
10.093689 17.668 -20.0702
10.166832 17.143 -20.0110
10.240505 16.495 -18.9913
10.314712 15.828 -16.6860
10.389457 15.195 -12.7288
10.464743 14.779 -6.8476
10.540575 14.724 1.4140
10.616956 14.926 10.9743
10.693891 15.347 19.8812
10.771383 15.996 26.4798
10.849437 16.935 31.0380
10.928057 18.109 34.0434
11.007246 19.342 35.5351
11.087009 20.467 35.6857
11.167350 21.420 34.7025
11.248273 22.270 33.0036
11.329783 23.033 30.8901
11.411883 23.711 28.5224
11.494578 24.299 25.8485
11.577873 24.795 22.7114
11.661771 25.206 19.4127
11.746277 25.541 16.1879
11.831395 25.805 13.0241
11.917130 25.992 9.5456
12.003487 26.101 6.0055
12.090469 26.136 2.6961
12.178081 26.097 -0.3541
12.266329 25.980 -3.5308
12.355216 25.785 -6.6077
12.444747 25.509 -9.2527
12.534926 25.144 -11.4275
12.625760 24.693 -13.3339
12.717251 24.174 -14.7481
12.809406 23.592 -15.3161
12.902228 22.910 -14.7979
12.995723 22.194 -13.0939
13.089895 21.575 -10.1115
13.184750 21.144 -5.7192
13.280292 20.876 0.4095
13.376526 20.812 7.3737
13.473458 21.028 13.8268
13.571093 21.577 19.4498
13.669434 22.354 23.9304
13.768489 23.185 26.9080
13.868261 23.981 28.4458
13.968756 24.779 28.9716
14.069979 25.546 28.7383
14.171936 26.239 27.9156
14.274632 26.862 26.5519
14.378072 27.427 24.8389
14.482261 27.945 22.9410
14.587206 28.414 20.8320
14.692910 28.839 18.5394
14.799381 29.233 16.1589
14.906624 29.600 13.6988
15.014643 29.940 11.1280
15.123446 30.260 8.4740
15.233036 30.563 5.7323
15.343421 30.848 2.8867
15.454606 31.114 -0.0454
15.566596 31.363 -3.0943
15.679398 31.592 -6.2762
15.793018 31.798 -9.5197
15.907460 31.978 -12.8622
16.022732 32.130 -16.3466
16.138840 32.251 -19.8202
16.255788 32.336 -23.3222
16.373585 32.384 -26.9109
16.492234 32.394 -30.3610
16.611744 32.362 -33.7353
16.732119 32.290 -37.0525
16.853367 32.180 -40.0661
16.975494 32.030 -42.8439
17.098505 31.850 -45.3474
17.222408 31.651 -47.3809
17.347209 31.433 -48.9521
17.472914 31.223 -50.0619
17.599530 31.040 -50.6068
17.727063 30.893 -50.5730
17.855521 30.817 -50.1854
17.984909 30.825 -49.3697
18.115235 30.918 -48.3243
18.246506 31.103 -47.3657
18.378727 31.377 -46.4223
18.511907 31.712 -45.7572
18.646052 32.095 -45.4247
18.781169 32.513 -45.3859
18.917265 32.937 -45.6977
19.054347 33.366 -46.3027
19.192423 33.786 -47.1379
19.331499 34.189 -48.1960
19.471583 34.573 -49.4049
19.612682 34.934 -50.7079
19.754804 35.269 -52.1085
19.897956 35.578 -53.4885
20.042144 35.860 -54.8846
20.187378 36.118 -56.1882
20.333664 36.354 -57.3680
20.481010 36.573 -58.4128
20.629424 36.787 -59.2260
20.778913 37.001 -59.8485
20.929486 37.234 -60.2818
21.081150 37.492 -60.5141
21.233912 37.787 -60.7339
21.387782 38.124 -60.9134
21.542767 38.495 -61.2668
21.698874 38.895 -61.8569
21.856113 39.306 -62.7129
22.014492 39.708 -63.9434
22.174018 40.086 -65.4285
22.334700 40.418 -67.1538
22.496546 40.698 -69.0286
22.659566 40.915 -70.8356
22.823766 41.074 -72.5811
22.989157 41.184 -73.9328
23.155745 41.259 -74.9428
23.323542 41.338 -75.3888
23.492554 41.441 -75.3316
23.662790 41.617 -74.9080
23.834261 41.874 -74.2105
24.006973 42.223 -73.6961
24.180938 42.646 -73.3953
24.356163 43.102 -73.6570
24.532658 43.564 -74.3386
24.710431 43.987 -75.4419
24.889493 44.362 -76.7291
25.069853 44.677 -77.9788
25.251519 44.952 -78.9728
25.434502 45.212 -79.4705
25.618811 45.517 -79.4969
25.804456 45.910 -78.9776
25.991445 46.437 -78.4943
26.179790 47.104 -78.1572
26.369500 47.874 -78.7487
26.560584 48.703 -80.1952
26.753053 49.518 -82.8259
26.946917 50.276 -86.3130
27.142185 50.934 -90.6799
27.338869 51.469 -95.4580
27.536977 51.867 -100.6599
27.736522 52.122 -105.7686
27.937512 52.241 -110.7075
28.139959 52.234 -115.1339
28.343872 52.138 -118.7445
28.549264 51.992 -121.3876
28.756143 51.879 -122.8549
28.964522 51.868 -123.3809
29.174411 52.030 -123.1694
29.385821 52.380 -123.1225
29.598763 52.891 -123.5508
29.813248 53.488 -125.0292
30.029287 54.097 -127.5003
30.246891 54.667 -130.8807
30.466073 55.156 -134.9349
30.686842 55.553 -139.3781
30.909212 55.855 -144.0997
31.133193 56.070 -148.8039
31.358797 56.208 -153.4307
31.586035 56.283 -157.9151
31.814921 56.309 -162.1699
32.045465 56.293 -166.2138
32.277680 56.238 -170.0427
32.511577 56.146 -173.6239
32.747169 56.015 -176.8920
32.984469 55.849 -179.7763
33.223488 55.656 177.8705
33.464239 55.464 176.1810
33.706735 55.307 175.2021
33.950987 55.229 174.9451
34.197010 55.277 175.1771
34.444816 55.471 175.5545
34.694417 55.811 175.7572
34.945827 56.273 175.4838
35.199059 56.817 174.5347
35.454126 57.413 172.8825
35.711041 58.037 170.5414
35.969818 58.671 167.5395
36.230470 59.300 163.8704
36.493011 59.906 159.5538
36.757455 60.473 154.6339
37.023814 60.982 149.1555
37.292104 61.414 143.1935
37.562338 61.756 136.9172
37.834530 62.000 130.4985
38.108695 62.145 124.1061
38.384846 62.199 117.9252
38.662999 62.182 112.1671
38.943167 62.125 107.0119
39.225365 62.072 102.5059
39.509608 62.067 98.5838
39.795911 62.146 95.0659
40.084289 62.325 91.6841
40.374756 62.595 88.1654
40.667328 62.928 84.3466
40.962020 63.297 80.2604
41.258848 63.693 76.0753
41.557827 64.132 71.9821
41.858972 64.660 68.0748
42.162299 65.328 64.2346
42.467824 66.173 60.0845
42.775564 67.185 55.0893
43.085533 68.307 48.7720
43.397749 69.456 40.8919
43.712227 70.552 31.4736
44.028983 71.537 20.7374
44.348036 72.369 8.9829
44.669400 73.026 -3.4773
44.993093 73.493 -16.3398
45.319131 73.763 -29.3147
45.647532 73.838 -42.1157
45.978313 73.724 -54.4537
46.311491 73.435 -66.0308
46.647083 73.000 -76.5459
46.985107 72.460 -85.7195
47.325581 71.879 -93.3533
47.668521 71.336 -99.4246
48.013947 70.909 -104.1746
48.361876 70.649 -108.0927
48.712326 70.555 -111.7338
49.065315 70.589 -115.4750
49.420863 70.700 -119.4034
49.778987 70.860 -123.3945
50.139706 71.070 -127.2993
50.503039 71.352 -131.1147
50.869005 71.719 -135.0316
51.237623 72.157 -139.3019
51.608912 72.630 -144.0132
51.982891 73.116 -148.9877
52.359580 73.639 -153.9313
52.739000 74.269 -158.7905
53.121168 75.066 -164.0646
53.506106 76.016 -170.6732
53.893833 77.007 -179.3560
54.284370 77.895 169.6831
54.677737 78.553 156.7485
55.073955 78.897 142.4291
55.473043 78.879 127.4239
55.875024 78.476 112.4720
56.279917 77.690 98.2743
56.687745 76.554 85.6876
57.098527 75.158 75.5606
57.512287 73.660 68.3165
57.929045 72.248 63.4720
58.348822 71.032 59.7863
58.771642 69.968 56.1959
59.197525 68.944 52.7968
59.626495 67.930 50.3105
60.058573 67.003 49.0152
60.493782 66.239 48.2328
60.932145 65.610 47.1235
61.373685 65.025 45.6936
61.818424 64.447 44.6146
62.266386 63.931 44.3124
62.717593 63.547 44.5134
63.172071 63.310 44.7955
63.629842 63.227 45.2793
64.090930 63.376 46.1653
64.555359 63.844 46.6821
65.023154 64.585 45.3281
65.494339 65.430 41.4585
65.968938 66.245 35.5838
66.446976 67.021 28.5511
66.928478 67.831 20.6478
67.413469 68.715 11.3497
67.901975 69.610 -0.0596
68.394021 70.382 -13.8297
68.889632 70.912 -29.5432
69.388835 71.130 -46.2223
69.891655 71.033 -63.0114
70.398118 70.683 -78.8317
70.908252 70.193 -93.0996
71.422083 69.712 -105.6162
71.939636 69.360 -116.7781
72.460941 69.176 -127.2698
72.986023 69.133 -137.5118
73.514909 69.192 -147.6343
74.047629 69.336 -157.6226
74.584208 69.574 -167.5527
75.124676 69.911 -177.7666
75.669061 70.320 171.1860
76.217390 70.710 158.7473
76.769692 70.958 144.8043
77.325997 70.948 129.6451
77.886333 70.613 114.0173
78.450730 69.947 98.5549
79.019216 68.992 83.6372
79.591822 67.811 69.0598
80.168577 66.426 53.9924
80.749512 64.791 37.3777
81.334656 62.821 18.0677
81.924040 60.526 -6.0925
82.517696 58.308 -39.9692
83.115653 57.327 -82.9856
83.717943 58.411 -116.6758
84.324598 60.546 -138.0149
84.935649 62.694 -154.4146
85.551128 64.487 -169.4160
86.171066 65.865 176.3624
86.795497 66.904 163.2802
87.424453 67.735 151.4393
88.057967 68.436 140.2152
88.696071 68.995 128.9352
89.338800 69.373 117.6195
89.986185 69.592 106.7090
90.638262 69.743 96.3545
91.295065 69.928 86.1880
91.956626 70.242 75.2208
92.622982 70.681 61.4615
93.294166 71.040 42.7295
93.970214 70.988 18.1344
94.651161 70.259 -12.2910
95.337042 68.748 -49.3994
96.027894 66.529 -97.5685
96.723752 63.878 -160.7885
97.424652 61.174 144.5552
98.130631 58.702 113.0291
98.841726 56.579 97.2914
99.557974 54.732 91.4430
100.279412 53.083 94.2278
101.006078 52.032 106.4762
101.738010 52.375 126.0682
102.475245 54.297 146.1466
103.217823 56.917 156.1560
103.965782 59.423 156.2860
104.719161 61.505 150.5925
105.477999 63.064 141.5645
106.242336 64.101 131.2742
107.012212 64.711 121.4152
107.787666 65.016 112.4565
108.568740 65.050 103.9315
109.355474 64.759 96.1129
110.147909 64.174 90.8905
110.946086 63.572 90.2719
111.750047 63.360 92.7837
112.559834 63.607 93.8862
113.375489 64.005 91.6183
114.197055 64.258 86.9559
115.024574 64.231 81.4303
115.858089 63.910 76.3054
116.697645 63.323 72.1797
117.543284 62.484 69.7504
118.395051 61.518 71.5883
119.252990 60.945 80.9771
120.117147 61.411 93.8787
120.987565 62.764 101.3848
121.864291 64.390 102.3856
122.747370 65.956 98.9850
123.636848 67.354 92.2883
124.532771 68.524 82.5276
125.435187 69.379 69.5211
126.344142 69.789 53.1838
127.259684 69.621 33.8939
128.181860 68.800 11.9880
129.110718 67.361 -13.6306
130.046308 65.593 -48.7872
130.988677 64.389 -108.6597
131.937875 64.769 -169.6665
132.893951 66.213 156.7549
133.856956 67.739 135.3491
134.826938 69.034 119.0100
135.803950 70.030 104.2700
136.788041 70.585 89.0532
137.779264 70.510 73.4692
138.777669 69.698 60.3259
139.783309 68.411 55.8428
140.796237 67.661 64.3438
141.816504 68.289 72.5652
142.844165 69.588 70.6504
143.879273 70.668 61.7036
144.921881 71.179 49.3237
145.972045 71.035 36.0684
147.029819 70.231 23.9956
148.095257 68.823 15.5186
149.168417 67.019 13.8887
150.249353 65.429 22.9983
151.338121 65.095 39.7114
152.434780 66.246 51.0457
153.539385 68.054 54.1719
154.651995 69.936 51.4612
155.772667 71.646 43.9490
156.901460 73.014 31.9792
158.038432 73.808 15.4629
159.183644 73.747 -3.7947
160.337154 72.734 -20.6833
161.499023 71.101 -29.3689
162.669312 69.652 -30.0991
163.848081 69.090 -30.3489
165.035392 69.181 -37.0386
166.231306 69.029 -51.1179
167.435887 68.068 -66.0229
168.649196 66.460 -74.5723
169.871298 64.889 -77.1611
171.102255 64.063 -78.5349
172.342133 64.279 -82.0063
173.590995 65.117 -93.0688
174.848907 65.847 -111.7769
176.115934 66.173 -133.4238
177.392143 66.236 -153.8486
178.677599 66.423 -170.7988
179.972371 67.027 174.7329
181.276525 67.937 160.2146
182.590129 68.934 145.7427
183.913252 70.077 132.8933
185.245964 71.567 121.6289
186.588332 73.313 108.3889
187.940428 74.789 88.5750
189.302322 75.406 62.1396
190.674085 74.774 33.5430
192.055788 72.786 10.1531
193.447503 69.734 5.1362
194.849303 66.790 29.8933
196.261262 65.536 38.7539
197.683452 65.275 33.7610
199.115948 65.117 32.1157
200.558824 65.639 37.9648
202.012156 67.388 43.1985
203.476019 69.829 40.1428
204.950490 72.074 24.2102
206.435646 73.539 -4.2534
207.931564 74.093 -42.1025
209.438322 73.990 -89.4048
210.955998 73.589 -147.3838
212.484672 72.988 154.9897
214.024424 72.009 111.2266
215.575333 70.694 84.3560
217.137481 69.884 75.4202
218.710948 70.568 74.9917
220.295818 71.974 65.8201
221.892172 72.888 48.1235
223.500094 72.991 28.8594
225.119668 72.462 9.8145
226.750978 71.446 -11.7834
228.394109 70.255 -30.6689
230.049147 69.974 86.3491
231.716178 71.009 72.1062
233.395289 72.501 56.6904
235.086567 73.916 43.1689
236.790102 74.956 27.9717
238.505980 75.481 11.1846
240.234293 75.287 -8.1138
241.975130 74.125 -26.3340
243.728581 72.299 -27.7417
245.494739 71.373 0.4236
247.273695 72.167 4.3674
249.065542 73.390 -4.2188
250.870374 74.421 -14.6804
252.688284 75.168 -27.4207
254.519367 75.520 -43.0200
256.363720 75.241 -61.9509
258.221437 74.082 -79.1697
260.092616 72.423 -84.5454
261.977354 71.197 -89.7427
263.875750 70.314 -107.3142
265.787903 69.175 -132.9487
267.713911 68.011 -172.2820
269.653877 67.740 114.7341
271.607900 68.317 48.2473
273.576083 68.759 10.5371
275.558528 68.866 -13.1233
277.555338 68.608 -31.8494
279.566619 68.088 -41.6357
281.592474 68.347 -34.1035
283.633009 69.540 -36.3579
285.688331 70.392 -53.9421
287.758546 70.277 -76.2864
289.843763 69.268 -99.2678
291.944090 68.387 -120.2231
294.059638 69.470 8.8796
296.190515 71.768 -12.6089
298.336833 73.442 -43.3794
300.498705 73.880 -74.1799
302.676243 73.018 -100.3972
304.869559 71.189 -115.2676
307.078770 69.258 -118.6101
309.303989 68.152 -120.0901
311.545334 67.915 -125.0796
313.802919 67.823 -136.2065
316.076865 67.192 -150.2119
318.367288 65.971 -158.9019
320.674309 64.757 -160.9714
322.998047 64.443 -157.0076
325.338624 65.597 -150.6055
327.696162 67.421 -157.3721
330.070783 68.904 -174.0967
332.462612 69.460 162.5420
334.871773 68.931 140.6267
337.298392 67.849 126.8848
339.742595 66.873 115.3679
342.204510 65.944 101.6660
344.684265 64.954 92.8574
347.181989 64.812 99.9504
349.697813 65.944 101.1558
352.231868 67.046 84.5759
354.784285 67.293 61.9524
357.355198 66.440 38.4021
359.944741 64.648 19.2031
362.553049 63.117 22.5742
365.180258 63.676 99.8428
367.826505 65.247 86.5195
370.491927 66.472 68.3147
373.176665 67.521 54.9739
375.880856 68.482 40.3765
378.604644 69.067 22.0605
381.348169 68.965 0.3940
384.111575 67.966 -22.1255
386.895006 66.095 -41.8928
389.698607 63.907 -35.4465
392.522524 63.165 15.3376
395.366904 64.045 6.1731
398.231895 64.627 -14.7036
401.117648 64.200 -34.7656
404.024312 63.125 -49.0210
406.952038 61.860 -66.4980
409.900981 60.225 -86.8696
412.871292 58.419 -36.7593
415.863128 58.040 -4.4971
418.876643 60.239 6.8096
421.911996 63.028 -2.4185
424.969344 64.829 -32.9102
428.048847 65.566 -68.9202
431.150666 65.461 -106.9165
434.274961 64.702 -144.5830
437.421897 63.557 -178.8174
440.591636 62.608 158.2961
443.784345 62.840 144.7974
447.000189 63.928 127.5339
450.239337 65.176 111.6948
453.501956 66.151 92.8091
456.788219 66.156 70.0515
460.098294 65.571 65.9368
463.432356 66.290 84.5979
466.790578 68.296 79.8679
470.173135 70.158 63.9329
473.580203 71.337 43.4326
477.011961 71.712 21.1729
480.468586 71.456 0.2959
483.950259 70.735 -21.2183
487.457163 69.326 -44.8770
490.989478 66.906 -65.8516
494.547390 63.510 -76.2275
498.131084 59.827 -66.1362
501.740748 57.647 -14.2197
505.376568 58.257 -13.3276
509.038735 60.724 -87.3857
512.727439 63.655 126.9746
516.442874 66.121 94.4243
520.185232 68.101 69.8047
523.954708 69.415 45.7554
527.751500 69.881 22.2788
531.575805 69.542 1.5986
535.427822 68.769 -9.9170
539.307753 68.119 -21.5991
543.215800 67.178 -40.4258
547.152165 65.685 -44.8506
551.117055 64.727 -22.0244
555.110677 64.626 -33.9380
559.133237 63.995 -58.5068
563.184947 62.464 -73.1851
567.266018 61.738 -16.3765
571.376661 62.285 -5.3228
575.517092 62.883 23.6372
579.687526 63.832 44.8618
583.888181 65.316 27.6919
588.119275 67.236 13.1265
592.381030 68.591 -16.1172
596.673667 68.579 -55.9639
600.997410 67.050 -100.9639
605.352485 64.389 -154.5068
609.739119 62.008 116.0791
614.157540 62.583 108.4819
618.607979 65.594 98.0596
623.090667 68.134 70.9746
627.605839 69.243 36.9150
632.153730 69.852 30.4473
636.734576 71.554 61.4922
641.348617 73.579 36.5176
645.996094 74.599 -1.9165
650.677248 74.150 -46.6450
655.392323 72.537 -106.6333
660.141566 71.262 99.6562
664.925224 71.603 53.8711
669.743546 72.276 23.1753
674.596784 72.479 0.8638
679.485191 72.768 -13.9536
684.409020 73.040 -33.7080
689.368530 72.303 -60.4453
694.363979 70.468 -87.1719
699.395626 68.588 -108.2100
704.463736 68.269 25.0532
709.568570 68.945 -3.7495
714.710396 68.652 -29.8169
719.889483 67.398 -32.3760
725.106099 66.773 -18.6602
730.360516 67.043 -21.5127
735.653010 67.362 -31.0229
740.983855 67.452 -37.3320
746.353329 68.384 -7.9312
751.761713 70.007 -7.6338
757.209288 70.886 -24.6323
762.696339 71.625 -30.0571
768.223151 73.218 -29.8071
773.790013 74.728 -45.2446
779.397214 75.178 -69.6367
785.045047 74.424 -90.6958
790.733808 73.117 -98.9795
796.463791 72.366 -108.2026
802.235296 72.408 -122.7827
808.048623 72.938 -146.6191
813.904077 73.161 173.4292
819.801961 72.438 112.7578
825.742584 70.781 20.5850
831.726255 68.597 -33.9062
837.753287 67.102 -59.8418
843.823992 67.725 -40.4023
849.938689 69.269 -26.4434
856.097695 70.181 -59.7612
862.301332 70.208 -93.9458
868.549922 69.852 -125.0049
874.843793 69.491 -158.5366
881.183272 69.299 160.0938
887.568689 69.076 91.9370
894.000378 68.255 16.8271
900.478673 66.870 -37.1274
907.003913 65.744 -70.8018
913.576437 65.778 -45.6426
920.196588 66.539 -43.1655
926.864712 67.508 -3.3545
933.581156 68.862 -3.8110
940.346270 70.077 -34.9180
947.160407 70.719 -66.0400
954.023921 70.206 -97.0757
960.937172 68.416 -119.8716
967.900519 66.066 -131.7812
974.914325 64.347 -122.2495
981.978956 64.126 -79.1035
989.094780 64.910 -80.2832
996.262169 65.743 -96.8350
1003.481495 65.652 -117.0444
1010.753136 65.044 -123.8457
1018.077470 65.816 -92.3667
1025.454879 67.436 -101.3398
1032.885748 67.917 -133.4888
1040.370463 67.083 -164.2612
1047.909417 65.927 164.0698
1055.503000 65.496 106.5996
1063.151610 65.845 -72.3164
1070.855645 65.651 -118.4053
1078.615506 64.985 -141.2271
1086.431599 65.254 -143.3394
1094.304330 66.452 -161.2744
1102.234110 67.515 167.4937
1110.221353 68.307 134.4473
1118.266475 68.778 98.1123
1126.369895 68.486 60.0737
1134.532035 68.183 29.0640
1142.753322 68.492 -5.7793
1151.034184 68.533 -47.6523
1159.375052 67.716 -89.8682
1167.776361 66.507 -118.0142
1176.238550 66.703 -148.0869
1184.762060 68.248 158.7373
1193.347334 69.655 85.7915
1201.994821 69.613 12.6831
1210.704971 68.148 -45.0508
1219.478238 65.819 -84.2051
1228.315080 64.018 -98.1040
1237.215957 64.640 -95.9805
1246.181334 66.354 -87.8613
1255.211678 67.362 -126.3633
1264.307459 67.170 -171.9619
1273.469152 65.876 146.7759
1282.697235 64.166 116.0703
1291.992188 63.048 98.4932
1301.354495 62.824 96.2012
1310.784647 63.119 64.7041
1320.283132 63.295 28.9883
1329.850448 64.095 -5.9419
1339.487093 65.537 -62.4355
1349.193569 66.452 -139.9653
1358.970381 66.773 146.4312
1368.818041 66.955 92.8862
1378.737061 67.431 50.8135
1388.727958 68.286 13.9751
1398.791253 68.811 -29.6802
1408.927471 68.208 -80.8477
1419.137140 66.783 -145.5088
1429.420793 65.286 137.4375
1439.778965 65.304 101.4468
1450.212197 66.948 68.9487
1460.721033 68.048 26.7266
1471.306019 68.010 -12.4390
1481.967709 67.494 -46.4478
1492.706658 66.834 -80.9766
1503.523426 66.323 -97.6328
1514.418576 66.910 -22.0918
1525.392678 67.943 -34.5537
1536.446302 68.682 69.6094
1547.580025 68.994 29.5513
1558.794428 69.164 0.2344
1570.090095 69.027 -28.0562
1581.467615 68.007 -32.4116
1592.927581 67.244 -36.4961
1604.470591 67.107 -55.9590
1616.097246 66.588 -74.7100
1627.808153 65.873 -80.4033
1639.603922 65.699 -92.2500
1651.485168 65.699 -95.2402
1663.452510 66.229 -29.3608
1675.506573 68.081 -12.9248
1687.647984 70.333 -30.8389
1699.877377 71.417 -60.7734
1712.195390 71.094 -79.5679
1724.602663 70.482 -91.6206
1737.099845 69.925 -113.7109
1749.687587 68.967 -129.6162
1762.366544 67.956 -102.6250
1775.137379 67.357 -84.2656
1788.000756 67.840 -95.1924
1800.957346 68.317 -114.6836
1814.007826 68.030 -124.2090
1827.152874 67.768 -115.4121
1840.393177 68.074 -120.2129
1853.729425 68.209 -135.4678
1867.162312 67.227 -150.1152
1880.692540 65.797 -149.8809
1894.320813 65.456 -146.3828
1908.047843 66.636 -136.7070
1921.874344 68.252 -138.7363
1935.801038 69.340 -136.7383
1949.828650 69.831 -151.9531
1963.957912 69.742 -175.6143
1978.189561 69.251 176.9717
1992.524338 69.410 -160.3945
2006.962991 70.236 -163.6260
2021.506272 70.201 176.9053
2036.154940 69.208 167.5635
2050.909758 69.074 -169.9883
2065.771495 69.543 -161.6416
2080.740927 69.405 -169.0967
2095.818833 69.469 -174.9863
2111.006001 69.935 174.3047
2126.303220 70.375 161.8857
2141.711290 70.692 150.5029
2157.231013 70.740 148.8398
2172.863198 70.222 142.3779
2188.608660 69.497 141.2139
2204.468221 69.358 138.7070
2220.442706 69.599 134.1602
2236.532950 69.718 125.4434
2252.739789 69.256 112.3574
2269.064070 68.151 99.6289
2285.506644 67.524 107.7188
2302.068367 68.875 147.0889
2318.750104 70.496 134.9922
2335.552723 70.705 111.5576
2352.477101 69.666 98.9531
2369.524119 68.406 93.6602
2386.694668 68.274 108.4180
2403.989641 69.560 109.6719
2421.409941 70.225 88.4648
2438.956476 69.582 67.0752
2456.630160 68.253 57.0342
2474.431915 67.128 64.9346
2492.362668 66.441 67.2393
2510.423356 65.883 61.7676
2528.614918 65.315 53.4033
2546.938304 65.025 51.6904
2565.394469 65.325 112.1660
2583.984375 65.963 109.9531
2602.708991 66.693 97.8379
2621.569293 67.102 82.5225
2640.566265 66.345 59.5830
2659.700897 64.766 49.1904
2678.974186 64.413 78.7041
2698.387137 65.455 87.5654
2717.940763 66.185 86.2568
2737.636082 66.035 79.4551
2757.474121 64.703 81.0498
2777.455915 63.743 94.8105
2797.582506 64.088 93.2539
2817.854942 64.725 84.7041
2838.274281 65.951 94.8828
2858.841586 67.480 95.4434
2879.557931 68.241 78.7666
2900.424394 68.622 63.7354
2921.442065 68.740 45.1582
2942.612039 68.308 29.7852
2963.935418 67.938 41.3193
2985.413316 67.711 34.4385
3007.046852 66.643 17.3398
3028.837153 64.917 20.8174
3050.785356 63.699 38.3428
3072.892604 63.144 49.8564
3095.160050 62.927 54.1396
3117.588856 63.013 46.8711
3140.180190 63.541 42.3447
3162.935230 63.935 27.0469
3185.855163 63.387 6.9600
3208.941182 62.236 -10.6748
3232.194493 61.216 -13.2559
3255.616307 60.919 17.8223
3279.207844 61.086 14.2715
3302.970336 61.302 -54.3887
3326.905021 62.178 144.2559
3351.013146 63.338 109.8672
3375.295969 63.934 84.3984
3399.754755 63.493 58.4834
3424.390779 62.641 52.7930
3449.205326 62.538 65.3496
3474.199690 63.232 85.6211
3499.375173 63.563 67.7607
3524.733088 62.774 44.2266
3550.274757 61.544 28.6748
3576.001511 61.599 83.0771
3601.914692 62.937 112.4658
3628.015651 63.871 83.4453
3654.305748 63.593 56.4561
3680.786354 62.712 38.0137
3707.458849 62.610 72.9492
3734.324624 63.381 69.2744
3761.385080 63.325 37.3447
3788.641627 62.594 8.8291
3816.095686 62.282 148.9170
3843.748688 62.831 121.3047
3871.602076 63.445 92.1494
3899.657300 63.601 67.3828
3927.915825 63.725 70.3789
3956.379122 63.754 111.6299
3985.048676 63.397 92.0254
4013.925981 62.706 70.4160
4043.012544 61.986 69.3779
4072.309879 62.188 100.5713
4101.819515 63.397 101.0986
4131.542990 64.086 86.1943
4161.481854 63.699 71.6855
4191.637667 62.908 72.8193
4222.012001 62.751 72.9180
4252.606441 62.958 58.4248
4283.422580 62.542 40.9727
4314.462026 62.227 57.6768
4345.726396 63.624 103.0342
4377.217321 65.011 85.6348
4408.936442 64.884 67.3330
4440.885413 64.252 91.9053
4473.065899 63.985 86.4844
4505.479579 63.667 76.7158
4538.128141 63.862 79.3340
4571.013288 64.486 85.1182
4604.136735 65.099 103.3242
4637.500207 65.497 92.4492
4671.105446 65.404 79.7822
4704.954201 65.647 88.0205
4739.048239 66.314 82.0459
4773.389336 66.161 65.2354
4807.979283 65.736 67.5391
4842.819883 66.043 72.0176
4877.912952 66.111 63.3076
4913.260320 65.768 59.0596
4948.863830 65.608 57.5332
4984.725337 65.967 58.9014
5020.846712 66.215 49.0059
5057.229836 65.627 44.3877
5093.876609 65.289 55.2852
5130.788938 65.476 49.5879
5167.968750 65.098 45.3857
5205.417982 64.854 57.1924
5243.138586 65.237 54.0020
5281.132530 65.753 49.7783
5319.401793 66.287 43.2090
5357.948371 66.322 35.9268
5396.774274 65.925 28.9863
5435.881525 65.397 25.6211
5475.272163 65.329 30.9258
5514.948243 65.354 23.5801
5554.911831 65.012 15.1494
5595.165012 64.842 9.8359
5635.709884 64.615 -1.5840
5676.548561 63.921 -12.9502
5717.683172 63.197 -3.9697
5759.115861 62.832 14.3320
5800.848789 62.519 12.4199
5842.884130 62.290 16.0664
5885.224077 62.461 6.4551
5927.870837 62.201 -6.6484
5970.826633 61.839 26.1768
6014.093704 61.870 29.3438
6057.674306 62.011 31.7910
6101.570711 62.345 27.4756
6145.785208 62.208 6.9600
6190.320101 61.487 1.5771
6235.177712 61.227 29.3291
6280.360380 61.760 30.4814
6325.870460 62.414 33.0674
6371.710325 62.576 24.5244
6417.882365 62.234 11.4902
6464.388986 61.985 47.6230
6511.232613 61.802 67.1523
6558.415689 61.760 85.2793
6605.940673 61.685 75.2959
6653.810042 61.640 73.4932
6702.026292 62.282 83.4229
6750.591937 63.578 86.9980
6799.509509 64.987 79.7432
6848.781558 65.831 64.9180
6898.410653 65.909 50.5332
6948.399380 65.498 41.4512
6998.750346 64.674 37.3545
7049.466176 64.155 41.3945
7100.549514 64.272 38.3379
7152.003023 64.356 30.1133
7203.829385 64.044 23.7607
7256.031302 63.760 32.0879
7308.611496 64.175 39.2559
7361.572708 64.752 40.2812
7414.917698 64.836 32.8770
7468.649249 64.698 29.6836
7522.770160 64.995 31.1982
7577.283253 65.831 31.1895
7632.191371 66.745 24.7773
7687.497376 67.021 12.9189
7743.204151 66.796 4.9502
7799.314600 66.563 -1.1729
7855.831649 66.439 -4.0684
7912.758244 66.024 -13.8242
7970.097352 65.110 -22.9912
8027.851962 64.321 -29.8223
8086.025087 63.840 -28.9990
8144.619758 63.641 -19.5244
8203.639030 63.597 -17.9883
8263.085980 63.674 -17.6123
8322.963708 63.658 -18.7832
8383.275334 63.384 -16.8643
8444.024002 62.847 -23.9141
8505.212881 62.199 -30.6299
8566.845160 61.835 -37.1875
8628.924051 61.917 -31.3486
8691.452792 61.790 -37.6074
8754.434642 61.238 -36.4473
8817.872884 60.563 -47.3486
8881.770826 60.296 86.9336
8946.131799 61.233 81.8867
9010.959157 62.211 69.5410
9076.256282 62.762 57.2705
9142.026576 63.298 47.2568
9208.273470 63.761 39.7031
9275.000415 64.028 27.9990
9342.210891 63.834 20.1436
9409.908403 63.777 19.8398
9478.096478 64.133 24.5088
9546.778672 64.200 22.5098
9615.958566 63.887 21.7129
9685.639765 64.205 23.2988
9755.825904 65.077 19.9600
9826.520640 65.605 9.6904
9897.727659 65.645 -0.8320
9969.450674 65.466 -6.4150
10041.693423 65.374 -14.1094
10114.459673 64.965 -26.2969
10187.753217 64.119 -32.4688
10261.577877 63.476 -28.2480
10335.937500 63.080 -31.5996
10410.835964 62.289 -38.5166
10486.277173 61.224 -31.1934
10562.265060 60.916 -25.1416
10638.803587 61.002 -30.5361
10715.896743 60.598 -27.8516
10793.548548 60.084 -24.5830
10871.763050 59.562 -35.9883
10950.544327 58.458 -44.1240
11029.896485 57.173 -14.1455
11109.823662 56.861 8.7607
11190.330024 58.063 28.5273
11271.419768 59.760 32.5205
11353.097122 60.726 21.4980
11435.366344 60.872 11.6650
11518.231722 60.689 7.3389
11601.697577 60.560 3.0088
11685.768261 60.354 -1.1895
11770.448155 60.216 3.1523
11855.741674 60.810 6.4883
11941.653265 61.466 0.5430
12028.187408 61.517 -6.0479
12115.348612 61.151 -11.6572
12203.141422 60.525 -18.0420
12291.570415 59.819 -18.3271
12380.640201 59.560 -12.7510
12470.355424 59.706 -10.2607
12560.720760 60.393 -4.0068
12651.740920 61.441 -4.8984
12743.420650 62.223 -12.2070
12835.764729 62.774 -19.5166
12928.777972 63.046 -28.7969
13022.465227 62.716 -41.8818
13116.831378 61.565 -54.0449
13211.881345 59.794 -58.1543
13307.620084 58.186 -51.0723
13404.052584 57.320 -23.9746
13501.183875 57.382 -13.3857
13599.019019 58.015 -6.7246
13697.563116 58.937 -5.8486
13796.821305 59.547 -13.8613
13896.798760 59.879 -19.1143
13997.500692 60.160 -26.1143
14098.932352 60.053 -35.4189
14201.099028 59.515 -41.3516
14304.006046 58.819 -44.0459
14407.658770 58.183 -44.5264
14512.062604 57.879 -44.7490
14617.222992 57.698 -47.9443
14723.145416 57.369 -50.8555
14829.835397 56.857 -55.1953
14937.298497 56.086 -58.1152
15045.540320 55.452 -57.4434
15154.566507 55.046 -59.5635
15264.382743 54.616 -61.3711
15374.994752 54.078 -65.0186
15486.408302 53.189 -68.5889
15598.629201 52.149 -64.3672
15711.663298 51.596 -57.1533
15825.516487 51.753 -52.4150
15940.194703 51.994 -57.0273
16055.703925 51.733 -65.4463
16172.050174 51.012 -75.8174
16289.239516 49.657 -85.8809
16407.278061 48.070 -88.5537
16526.171961 46.756 -94.7471
16645.927415 45.695 -79.4111
16766.550667 46.004 68.7500
16888.048005 48.319 80.4004
17010.425762 51.288 70.0654
17133.690320 53.574 52.4189
17257.848103 54.633 33.7148
17382.905584 55.000 20.9268
17508.869284 55.035 11.1045
17635.745768 55.161 6.6484
17763.541652 55.349 0.9746
17892.263597 55.404 -6.4561
18021.918315 54.996 -15.4697
18152.512564 54.245 -20.1045
18284.053153 53.509 -21.2451
18416.546939 53.273 -15.2148
18550.000830 53.730 -13.9961
18684.421783 54.171 -20.8008
18819.816805 53.935 -32.3652
18956.192956 52.765 -43.3057
19093.557344 50.910 -44.8076
19231.917131 49.439 -32.9443
19371.279531 49.084 -24.6328
19511.651807 49.040 -23.3906
19653.041280 48.843 -23.0107
19795.455318 48.718 -21.7705
19938.901348 48.711 -26.0068
