* Measurement data measured by REW V5.31
* Source: Scarlett 2i4 USB, MICROPHONE, R, volume: no control. Timing signal peak level -31.3 dBFS, measurement signal peak level -25.5 dBFS
* Format: 512k Log Swept Sine, 1 sweep at -18.0 dBFS using an acoustic timing reference
* Dated: Apr 16, 2024 9:25:25 AM
* REW Settings:
*  C-weighting compensation: Off
*  Target level: 75.0 dB
* Note: ; Delay -0.0115 ms (-3.9 mm, -0.15 in) using estimated IR delay relative to Acoustic reference played from SPEAKER L with no timing offset
* Measurement: couch-p1-l
* Smoothing: 1/48 octave
* Frequency Step: 96 ppo
* Start Frequency: 10.093689 Hz
*
* Freq(Hz) SPL(dB) Phase(degrees)
10.093689 21.738 -112.4879
10.166832 22.006 -125.2344
10.240505 22.329 -138.5376
10.314712 22.665 -151.3991
10.389457 23.018 -163.0344
10.464743 23.438 -173.3403
10.540575 23.968 176.5973
10.616956 24.550 167.0224
10.693891 25.129 158.3011
10.771383 25.662 150.5766
10.849437 26.146 143.1697
10.928057 26.595 135.7920
11.007246 27.008 128.7572
11.087009 27.378 122.2935
11.167350 27.700 116.1967
11.248273 27.975 109.9511
11.329783 28.208 103.7983
11.411883 28.400 97.9931
11.494578 28.553 92.5477
11.577873 28.662 86.9591
11.661771 28.732 81.3740
11.746277 28.765 76.0343
11.831395 28.763 71.0298
11.917130 28.723 65.9464
12.003487 28.647 60.8734
12.090469 28.539 56.0227
12.178081 28.399 51.4859
12.266329 28.226 46.9684
12.355216 28.024 42.5334
12.444747 27.796 38.3540
12.534926 27.543 34.4896
12.625760 27.265 30.7911
12.717251 26.969 27.2894
12.809406 26.665 24.0965
12.902228 26.347 21.2940
12.995723 26.023 18.8235
13.089895 25.711 16.6458
13.184750 25.421 14.8192
13.280292 25.147 13.4941
13.376526 24.908 12.5415
13.473458 24.725 11.7999
13.571093 24.601 11.4211
13.669434 24.537 11.3840
13.768489 24.541 11.4442
13.868261 24.620 11.4868
13.968756 24.774 11.6522
14.069979 24.989 11.7480
14.171936 25.254 11.6052
14.274632 25.575 11.3423
14.378072 25.937 10.9036
14.482261 26.323 10.1842
14.587206 26.732 9.2452
14.692910 27.160 8.1178
14.799381 27.593 6.7517
14.906624 28.027 5.1606
15.014643 28.461 3.4046
15.123446 28.887 1.4747
15.233036 29.300 -0.6426
15.343421 29.700 -2.9052
15.454606 30.080 -5.2710
15.566596 30.437 -7.7603
15.679398 30.771 -10.3739
15.793018 31.076 -13.0130
15.907460 31.350 -15.6930
16.022732 31.592 -18.4548
16.138840 31.800 -21.1472
16.255788 31.972 -23.7867
16.373585 32.107 -26.4229
16.492234 32.207 -28.8672
16.611744 32.271 -31.1534
16.732119 32.302 -33.2933
16.853367 32.308 -35.1064
16.975494 32.288 -36.6201
17.098505 32.257 -37.8231
17.222408 32.232 -38.6095
17.347209 32.216 -38.9655
17.472914 32.235 -38.9919
17.599530 32.309 -38.6876
17.727063 32.442 -38.0757
17.855521 32.647 -37.4910
17.984909 32.931 -36.8880
18.115235 33.278 -36.4506
18.246506 33.669 -36.4463
18.378727 34.101 -36.7452
18.511907 34.537 -37.4622
18.646052 34.964 -38.6382
18.781169 35.368 -40.1266
18.917265 35.726 -41.8673
19.054347 36.037 -43.8958
19.192423 36.290 -45.9126
19.331499 36.480 -47.9803
19.471583 36.611 -49.9484
19.612682 36.686 -51.5510
19.754804 36.712 -52.8965
19.897956 36.718 -53.6829
20.042144 36.713 -53.8777
20.187378 36.743 -53.5352
20.333664 36.844 -52.5570
20.481010 37.034 -51.2007
20.629424 37.350 -49.8169
20.778913 37.780 -48.4565
20.929486 38.294 -47.7140
21.081150 38.877 -47.4712
21.233912 39.472 -47.9438
21.387782 40.055 -49.0924
21.542767 40.597 -50.7122
21.698874 41.074 -52.8202
21.856113 41.483 -55.1577
22.014492 41.815 -57.6125
22.174018 42.073 -60.1058
22.334700 42.266 -62.3839
22.496546 42.403 -64.5059
22.659566 42.504 -66.2379
22.823766 42.582 -67.6566
22.989157 42.664 -68.7162
23.155745 42.759 -69.4561
23.323542 42.881 -70.0320
23.492554 43.030 -70.4469
23.662790 43.197 -70.8675
23.834261 43.376 -71.2610
24.006973 43.549 -71.6006
24.180938 43.717 -71.8355
24.356163 43.883 -71.7498
24.532658 44.070 -71.3408
24.710431 44.316 -70.4366
24.889493 44.656 -69.2516
25.069853 45.132 -67.9195
25.251519 45.744 -66.9583
25.434502 46.481 -66.5967
25.618811 47.286 -67.2734
25.804456 48.116 -68.9409
25.991445 48.908 -71.6522
26.179790 49.631 -75.2174
26.369500 50.252 -79.4259
26.560584 50.758 -84.1031
26.753053 51.137 -88.9983
26.946917 51.391 -93.8596
27.142185 51.522 -98.5784
27.338869 51.550 -102.7428
27.536977 51.496 -106.3338
27.736522 51.409 -108.9870
27.937512 51.339 -110.7990
28.139959 51.352 -111.6891
28.343872 51.496 -112.2001
28.549264 51.792 -112.5366
28.756143 52.212 -113.4556
28.964522 52.706 -115.0686
29.174411 53.214 -117.5992
29.385821 53.674 -120.9039
29.598763 54.055 -124.8455
29.813248 54.328 -129.2069
30.029287 54.485 -133.6725
30.246891 54.523 -138.1727
30.466073 54.449 -142.3296
30.686842 54.279 -146.0344
30.909212 54.032 -149.1174
31.133193 53.743 -151.3799
31.358797 53.449 -152.8177
31.586035 53.192 -153.3705
31.814921 53.019 -153.2479
32.045465 52.956 -152.7011
32.277680 53.018 -152.0001
32.511577 53.193 -151.5558
32.747169 53.449 -151.5837
32.984469 53.752 -152.1837
33.223488 54.063 -153.4030
33.464239 54.348 -155.1203
33.706735 54.590 -157.1924
33.950987 54.779 -159.4778
34.197010 54.916 -161.7475
34.444816 55.017 -163.8729
34.694417 55.104 -165.7888
34.945827 55.203 -167.4665
35.199059 55.338 -169.0461
35.454126 55.516 -170.7222
35.711041 55.727 -172.6613
35.969818 55.948 -175.0209
36.230470 56.143 -177.8553
36.493011 56.282 178.9377
36.757455 56.342 175.4988
37.023814 56.309 172.0029
37.292104 56.178 168.6918
37.562338 55.960 165.8135
37.834530 55.675 163.5392
38.108695 55.352 162.0084
38.384846 55.026 161.3022
38.662999 54.735 161.3936
38.943167 54.513 162.1151
39.225365 54.376 163.2414
39.509608 54.325 164.5465
39.795911 54.342 165.8655
40.084289 54.407 167.1478
40.374756 54.500 168.4767
40.667328 54.622 170.0544
40.962020 54.800 172.1062
41.258848 55.090 174.7271
41.557827 55.552 177.7501
41.858972 56.228 -179.3015
42.162299 57.113 -177.0781
42.467824 58.153 -176.1417
42.775564 59.270 -176.7838
43.085533 60.389 -179.0275
43.397749 61.451 177.2697
43.712227 62.416 172.3210
44.028983 63.256 166.3640
44.348036 63.953 159.6349
44.669400 64.494 152.3661
44.993093 64.872 144.7917
45.319131 65.085 137.1513
45.647532 65.139 129.6941
45.978313 65.048 122.6746
46.311491 64.838 116.3342
46.647083 64.549 110.8635
46.985107 64.233 106.3402
47.325581 63.943 102.6683
47.668521 63.717 99.5731
48.013947 63.565 96.7028
48.361876 63.466 93.7990
48.712326 63.386 90.8182
49.065315 63.308 87.9197
49.420863 63.243 85.3301
49.778987 63.235 83.1468
50.139706 63.333 81.1917
50.503039 63.559 79.0544
50.869005 63.894 76.3276
51.237623 64.296 72.8363
51.608912 64.739 68.6360
51.982891 65.227 63.7951
52.359580 65.781 58.1603
52.739000 66.397 51.3179
53.121168 67.026 42.8087
53.506106 67.580 32.3999
53.893833 67.968 20.1531
54.284370 68.111 6.3526
54.677737 67.954 -8.5640
55.073955 67.463 -24.0772
55.473043 66.623 -39.6093
55.875024 65.443 -54.5399
56.279917 63.963 -68.2642
56.687745 62.277 -80.2252
57.098527 60.549 -90.3538
57.512287 58.973 -99.4902
57.929045 57.673 -109.0488
58.348822 56.635 -120.0231
58.771642 55.786 -132.5006
59.197525 55.127 -145.8894
59.626495 54.767 -159.6210
60.058573 54.822 -173.5618
60.493782 55.280 171.9968
60.932145 55.982 156.8438
61.373685 56.741 141.1067
61.818424 57.413 125.1562
62.266386 57.920 109.4713
62.717593 58.234 94.3948
63.172071 58.366 80.3213
63.629842 58.367 67.6283
64.090930 58.319 56.4370
64.555359 58.322 46.6001
65.023154 58.448 37.6088
65.494339 58.708 28.8680
65.968938 59.068 19.9713
66.446976 59.486 10.8602
66.928478 59.945 1.6238
67.413469 60.441 -7.7079
67.901975 60.964 -17.1954
68.394021 61.487 -26.8682
68.889632 61.987 -36.6249
69.388835 62.459 -46.2164
69.891655 62.927 -55.4567
70.398118 63.432 -64.3379
70.908252 63.998 -73.1167
71.422083 64.605 -82.1895
71.939636 65.200 -91.7819
72.460941 65.723 -101.8226
72.986023 66.139 -112.0094
73.514909 66.448 -121.9382
74.047629 66.680 -131.3595
74.584208 66.877 -140.2344
75.124676 67.066 -148.7540
75.669061 67.249 -157.2224
76.217390 67.401 -165.9607
76.769692 67.470 -175.1865
77.325997 67.390 175.0426
77.886333 67.092 164.9564
78.450730 66.517 154.9374
79.019216 65.618 145.4606
79.591822 64.339 137.1803
80.168577 62.616 131.4226
80.749512 60.514 132.0957
81.334656 58.837 149.9116
81.924040 59.382 -176.2877
82.517696 61.754 -161.0028
83.115653 64.285 -160.3925
83.717943 66.427 -165.6971
84.324598 68.122 -173.8586
84.935649 69.399 176.6406
85.551128 70.324 166.8868
86.171066 70.994 157.5593
86.795497 71.500 148.8159
87.424453 71.898 140.4617
88.057967 72.210 132.3442
88.696071 72.456 124.4817
89.338800 72.671 116.8843
89.986185 72.891 109.4198
90.638262 73.145 101.7732
91.295065 73.427 93.3428
91.956626 73.659 83.3563
92.622982 73.682 71.4979
93.294166 73.324 58.4457
93.970214 72.484 45.8156
94.651161 71.195 35.6924
95.337042 69.663 29.6278
96.027894 68.200 27.1005
96.723752 67.022 25.7747
97.424652 66.123 24.0463
98.130631 65.387 21.4723
98.841726 64.678 17.9873
99.557974 63.887 14.1045
100.279412 62.982 10.6132
101.006078 61.993 7.8219
101.738010 60.950 5.7063
102.475245 59.883 4.4077
103.217823 58.846 3.7423
103.965782 57.852 2.7870
104.719161 56.823 0.9341
105.477999 55.653 -1.3590
106.242336 54.296 -3.3143
107.012212 52.779 -4.8386
107.787666 51.149 -7.1581
108.568740 49.425 -13.3616
109.355474 47.723 -29.1339
110.147909 46.902 -72.0876
110.946086 48.202 -142.7883
111.750047 50.726 -175.3193
112.559834 53.173 168.3604
113.375489 55.192 156.8541
114.197055 56.753 146.9124
115.024574 57.884 137.8127
115.858089 58.663 129.8613
116.697645 59.181 123.1692
117.543284 59.491 117.4314
118.395051 59.597 112.5641
119.252990 59.518 109.1823
120.117147 59.357 108.2753
120.987565 59.327 110.4164
121.864291 59.676 114.9744
122.747370 60.514 119.7360
123.636848 61.684 121.9943
124.532771 62.897 120.7142
125.435187 63.928 116.5569
126.344142 64.694 111.2549
127.259684 65.301 106.8622
128.181860 65.964 103.8835
129.110718 66.763 100.4304
130.046308 67.562 94.7864
130.988677 68.173 87.0859
131.937875 68.505 78.5146
132.893951 68.580 70.3306
133.856956 68.504 63.1483
134.826938 68.398 56.8384
135.803950 68.337 50.4047
136.788041 68.244 42.0814
137.779264 67.883 31.2510
138.777669 67.026 19.1852
139.783309 65.547 7.6542
140.796237 63.380 -1.5779
141.816504 60.569 -4.2933
142.844165 57.943 23.7156
143.879273 57.792 82.0957
144.921881 59.615 89.1046
145.972045 61.297 84.6847
147.029819 62.382 78.9363
148.095257 62.993 74.3047
149.168417 63.398 72.3191
150.249353 63.995 73.9946
151.338121 65.126 77.6373
152.434780 66.694 78.2754
153.539385 68.266 73.0233
154.651995 69.495 62.9237
155.772667 70.218 50.0018
156.901460 70.391 36.0735
158.038432 70.034 22.4817
159.183644 69.176 10.1233
160.337154 67.847 0.0990
161.499023 66.114 -6.4541
162.669312 64.101 -8.4149
163.848081 62.189 -0.6442
165.035392 61.402 19.4661
166.231306 62.048 29.6886
167.435887 62.933 26.9285
168.649196 63.335 20.0619
169.871298 63.163 13.1819
171.102255 62.538 8.5084
172.342133 61.708 7.6561
173.590995 60.950 8.9415
174.848907 60.225 7.5032
176.115934 59.337 5.3564
177.392143 59.100 22.4470
178.677599 60.806 62.2386
179.972371 63.116 63.3610
181.276525 64.653 50.4406
182.590129 65.254 36.6757
183.913252 65.229 26.6512
185.245964 65.003 20.7362
186.588332 64.816 15.9419
187.940428 64.606 10.1089
189.302322 64.221 3.7749
190.674085 63.664 -1.1230
192.055788 63.146 -4.0010
193.447503 62.801 -8.6313
194.849303 62.411 -18.2192
196.261262 61.718 -32.7222
197.683452 60.688 -54.9110
199.115948 59.660 -95.3901
200.558824 59.653 -172.1318
202.012156 61.173 137.7480
203.476019 63.363 114.7490
204.950490 65.439 98.9927
206.435646 66.989 83.2170
207.931564 67.859 67.2793
209.438322 68.198 54.4109
210.955998 68.421 46.3740
212.484672 68.736 38.5859
214.024424 68.789 26.7405
215.575333 68.170 14.1619
217.137481 67.020 9.0789
218.710948 66.417 20.4260
220.295818 67.213 30.7266
221.892172 68.278 23.4553
223.500094 68.593 9.7249
225.119668 68.066 -1.8655
226.750978 67.069 -6.8328
228.394109 66.119 -7.1917
230.049147 65.301 -10.1707
231.716178 64.414 -12.0159
233.395289 64.208 1.9727
235.086567 65.647 21.8625
236.790102 67.586 19.4541
238.505980 68.831 4.7534
240.234293 69.122 -13.0662
241.975130 68.517 -31.0576
243.728581 67.000 -48.6223
245.494739 64.507 -60.2720
247.273695 61.646 -32.1162
249.065542 60.831 25.8367
250.870374 62.717 35.0586
252.688284 65.096 34.3623
254.519367 66.972 26.3833
256.363720 68.078 13.9858
258.221437 68.396 1.0527
260.092616 68.078 -8.4746
261.977354 67.619 -9.9990
263.875750 67.650 -7.8232
265.787903 68.189 -9.2100
267.713911 68.875 -13.8245
269.653877 69.269 -23.6667
271.607900 68.936 -36.5500
273.576083 67.839 -44.4080
275.558528 66.675 -38.9355
277.555338 66.480 -29.1221
279.566619 67.025 -29.7241
281.592474 67.356 -37.4854
283.633009 67.035 -46.2158
285.688331 66.242 -48.0464
287.758546 65.778 -41.4048
289.843763 66.354 -33.5161
291.944090 67.833 -28.0344
294.059638 69.367 -33.7388
296.190515 70.285 -47.1462
298.336833 70.396 -62.6011
300.498705 69.725 -77.0569
302.676243 68.349 -88.4617
304.869559 66.609 -88.8665
307.078770 65.753 -66.7556
309.303989 66.518 -56.6433
311.545334 67.646 -62.5427
313.802919 68.493 -70.1995
316.076865 69.194 -76.9790
318.367288 69.771 -85.8081
320.674309 70.047 -97.2017
322.998047 69.889 -109.4116
325.338624 69.481 -117.4849
327.696162 69.419 -119.6689
330.070783 69.747 -127.8218
332.462612 69.720 -143.2026
334.871773 68.951 -157.9041
337.298392 67.722 -165.7961
339.742595 66.857 -165.9802
342.204510 67.094 -164.5767
344.684265 67.975 -172.2720
347.181989 68.483 170.9094
349.697813 68.177 152.1584
352.231868 67.138 136.6763
354.784285 65.766 128.3977
357.355198 64.965 130.1296
359.944741 65.400 131.2124
362.553049 66.209 120.9570
365.180258 66.477 105.7720
367.826505 66.487 97.2554
370.491927 66.995 94.0171
373.176665 67.691 82.4839
375.880856 67.926 67.4199
378.604644 67.941 57.3445
381.348169 68.053 47.0132
384.111575 67.930 32.8723
386.895006 67.321 20.4590
389.698607 66.481 13.4646
392.522524 65.803 9.2883
395.366904 65.568 8.3972
398.231895 65.785 5.2583
401.117648 65.973 -3.0527
404.024312 65.922 -10.6931
406.952038 65.970 -14.5161
409.900981 66.498 -16.9397
412.871292 67.321 -24.5569
415.863128 67.898 -38.2339
418.876643 67.845 -55.3376
421.911996 67.091 -71.0544
424.969344 65.806 -85.1560
428.048847 64.048 -97.1663
431.150666 62.386 -96.9656
434.274961 62.455 -65.0701
437.421897 64.004 -63.9707
440.591636 65.189 -84.0732
443.784345 65.723 -103.9775
447.000189 66.333 -118.8345
450.239337 67.185 -139.2126
453.501956 67.709 -166.6301
456.788219 67.709 163.9124
460.098294 67.156 133.6018
463.432356 66.079 108.1704
466.790578 65.180 92.0793
470.173135 64.698 70.8257
473.580203 63.629 46.1067
477.011961 62.033 39.6387
480.468586 62.184 66.3567
483.950259 64.501 72.9951
487.457163 66.752 56.5911
490.989478 68.231 34.3640
494.547390 68.944 11.1199
498.131084 68.882 -12.0784
501.740748 68.097 -32.4749
505.376568 66.822 -49.0303
509.038735 65.295 -62.0352
512.727439 63.854 -71.5852
516.442874 63.163 -78.1499
520.185232 63.762 -90.1414
523.954708 64.786 -124.6575
527.751500 65.433 172.1038
531.575805 65.775 86.0291
535.427822 65.656 23.1855
539.307753 64.687 -17.5972
543.215800 63.186 -35.2812
547.152165 62.530 -34.7053
551.117055 63.182 -42.0481
555.110677 64.552 -49.8330
559.133237 66.206 -64.1086
563.184947 67.656 -85.4548
567.266018 68.414 -113.9763
571.376661 68.127 -146.6951
575.517092 66.743 -175.8213
579.687526 65.014 169.3369
583.888181 63.746 147.9453
588.119275 61.960 115.8560
592.381030 59.166 131.5850
596.673667 57.389 -171.7280
600.997410 59.076 -147.2617
605.352485 61.955 -161.6157
609.739119 64.246 173.4243
614.157540 65.969 150.0142
618.607979 67.212 126.2383
623.090667 67.982 103.2253
627.605839 68.708 85.8140
632.153730 69.638 70.7295
636.734576 69.990 46.1421
641.348617 69.354 24.4280
645.996094 68.551 8.5061
650.677248 67.953 -12.6580
655.392323 67.595 -35.6340
660.141566 67.363 -69.9214
664.925224 66.625 -126.6284
669.743546 66.676 156.3523
674.596784 68.713 102.8198
679.485191 70.808 60.4431
684.409020 71.773 19.1396
689.368530 71.427 -18.9238
694.363979 70.070 -49.2319
699.395626 68.399 -75.6855
704.463736 66.706 -102.6318
709.568570 65.258 -133.3125
714.710396 64.189 173.4268
719.889483 63.705 81.9346
725.106099 64.380 -0.5591
730.360516 65.659 -58.9785
735.653010 66.482 -113.4971
740.983855 66.305 -161.5879
746.353329 66.082 164.6318
751.761713 66.713 135.0767
757.209288 67.280 104.1763
762.696339 67.618 85.9258
768.223151 68.504 76.3403
773.790013 68.819 50.4746
779.397214 67.681 28.1592
785.045047 66.127 20.4546
790.733808 65.633 27.3857
796.463791 66.233 20.1025
802.235296 67.117 3.1802
808.048623 68.150 -14.3159
813.904077 68.801 -42.6152
819.801961 68.106 -81.3037
825.742584 66.083 -115.3833
831.726255 64.589 -137.6836
837.753287 65.404 -171.1060
843.823992 66.872 149.2505
849.938689 67.753 116.2666
856.097695 68.662 98.3501
862.301332 70.069 82.2183
868.549922 71.183 60.6665
874.843793 71.602 39.9258
881.183272 71.793 24.2656
887.568689 71.884 6.5239
894.000378 71.415 -12.7837
900.478673 70.426 -26.2676
907.003913 69.524 -39.2822
913.576437 68.689 -57.1948
920.196588 67.638 -83.2319
926.864712 66.060 -125.7930
933.581156 65.015 134.0693
940.346270 66.271 73.2783
947.160407 68.154 41.6138
954.023921 69.030 13.9214
960.937172 69.074 -6.3804
967.900519 68.608 -23.1260
974.914325 67.769 -36.5835
981.978956 66.858 -48.0156
989.094780 66.022 -62.7559
996.262169 65.732 -44.0000
1003.481495 67.363 13.0767
1010.753136 69.474 -4.7134
1018.077470 70.386 -30.7803
1025.454879 70.185 -52.0132
1032.885748 69.603 -69.0874
1040.370463 68.590 -89.7983
1047.909417 66.598 -103.8203
1055.503000 64.506 -80.6045
1063.151610 64.344 -70.8218
1070.855645 65.039 -89.2759
1078.615506 64.842 -117.4639
1086.431599 64.003 -98.6333
1094.304330 64.062 -26.5659
1102.234110 65.303 -41.4736
1110.221353 66.463 -64.9834
1118.266475 66.862 -92.7739
1126.369895 65.965 -122.1216
1134.532035 64.552 -144.5977
1142.753322 64.371 -86.5493
1151.034184 64.695 -77.5420
1159.375052 64.110 -110.4800
1167.776361 64.098 -54.2378
1176.238550 66.350 -21.6699
1184.762060 68.418 -43.6543
1193.347334 68.517 -87.3706
1201.994821 66.487 -118.6406
1210.704971 63.396 -115.6230
1219.478238 60.685 -130.5996
1228.315080 58.373 -138.8809
1237.215957 56.795 -68.4663
1246.181334 56.880 -89.5186
1255.211678 57.811 -122.8291
1264.307459 58.867 76.8784
1273.469152 60.510 30.4482
1282.697235 61.889 -1.1177
1291.992188 63.156 -20.5190
1301.354495 64.436 -41.1060
1310.784647 65.136 -54.9302
1320.283132 66.029 -41.9482
1329.850448 66.597 -64.7959
1339.487093 66.085 -96.4780
1349.193569 64.895 -117.5435
1358.970381 63.952 -75.2017
1368.818041 64.159 -84.7324
1378.737061 64.759 -115.5449
1388.727958 65.185 -157.8354
1398.791253 65.059 74.2656
1408.927471 64.699 -33.5566
1419.137140 64.425 -64.0635
1429.420793 63.646 -88.1187
1439.778965 61.681 -102.6348
1450.212197 59.752 -93.7241
1460.721033 59.326 -70.1094
1471.306019 60.269 -57.9097
1481.967709 61.704 -63.0615
1492.706658 62.609 -81.8735
1503.523426 62.562 -99.8418
1514.418576 61.861 -111.4067
1525.392678 61.354 -112.4814
1536.446302 61.197 -116.1626
1547.580025 61.289 -60.6743
1558.794428 61.799 -60.4487
1570.090095 62.678 -69.5698
1581.467615 63.913 -79.1382
1592.927581 65.239 -89.2715
1604.470591 66.463 -101.4580
1616.097246 67.172 -119.8496
1627.808153 67.280 -136.3154
1639.603922 67.540 -143.9243
1651.485168 67.954 -160.2036
1663.452510 67.480 174.0220
1675.506573 65.889 151.0244
1687.647984 64.106 128.5732
1699.877377 63.553 167.6357
1712.195390 64.056 -133.7686
1724.602663 64.570 -155.7866
1737.099845 65.034 -177.0693
1749.687587 64.943 153.5444
1762.366544 63.992 124.8921
1775.137379 62.942 97.5913
1788.000756 62.034 113.9282
1800.957346 61.574 113.9980
1814.007826 62.275 58.7085
1827.152874 64.497 -7.0068
1840.393177 67.326 -57.0308
1853.729425 69.392 -101.8228
1867.162312 70.166 -144.4087
1880.692540 69.670 175.7925
1894.320813 68.026 140.7017
1908.047843 65.738 120.2769
1921.874344 64.822 135.7031
1935.801038 66.076 142.4346
1949.828650 67.030 100.0200
1963.957912 66.445 41.4287
1978.189561 65.235 -42.3940
1992.524338 65.045 -120.0552
2006.962991 66.048 -164.7969
2021.506272 67.566 154.9189
2036.154940 68.093 106.4341
2050.909758 67.060 61.5347
2065.771495 65.543 29.1533
2080.740927 65.650 -8.6040
2095.818833 67.335 -49.6870
2111.006001 69.190 -90.7178
2126.303220 70.425 -131.5146
2141.711290 70.666 -170.8931
2157.231013 69.507 162.0352
2172.863198 67.495 151.0562
2188.608660 65.575 134.4409
2204.468221 64.850 123.0762
2220.442706 65.931 -170.2544
2236.532950 67.467 172.5444
2252.739789 68.203 135.6016
2269.064070 67.790 94.4854
2285.506644 66.622 51.2139
2302.068367 65.491 -11.7642
2318.750104 65.549 -79.9307
2335.552723 66.710 -123.6289
2352.477101 67.511 -157.6392
2369.524119 67.780 178.8521
2386.694668 67.981 160.2852
2403.989641 67.946 140.8940
2421.409941 67.356 125.2031
2438.956476 66.953 119.0747
2456.630160 66.797 107.4551
2474.431915 66.206 90.2305
2492.362668 66.117 101.1167
2510.423356 67.654 149.5488
2528.614918 68.973 135.1899
2546.938304 69.003 109.3149
2565.394469 67.953 82.7134
2583.984375 65.853 61.8052
2602.708991 63.443 86.1543
2621.569293 62.856 123.0156
2640.566265 64.496 132.6655
2659.700897 66.121 118.5723
2678.974186 66.758 97.0513
2698.387137 66.747 79.5405
2717.940763 66.114 69.4219
2737.636082 65.058 108.6382
2757.474121 64.983 114.8320
2777.455915 64.923 93.4023
2797.582506 63.966 76.5234
2817.854942 62.939 72.9155
2838.274281 62.738 85.3545
2858.841586 62.750 83.7827
2879.557931 62.447 80.6802
2900.424394 62.271 81.5200
2921.442065 62.538 83.8696
2942.612039 63.156 86.0166
2963.935418 63.181 75.7627
2985.413316 63.106 68.3481
3007.046852 63.634 71.4609
3028.837153 64.460 104.3687
3050.785356 65.220 94.1650
3072.892604 65.614 73.3213
3095.160050 65.155 52.6621
3117.588856 63.894 58.6689
3140.180190 63.482 79.3784
3162.935230 64.029 67.1426
3185.855163 63.719 44.8032
3208.941182 62.406 35.3418
3232.194493 61.623 69.2974
3255.616307 61.571 67.6987
3279.207844 61.626 70.8076
3302.970336 62.165 87.6826
3326.905021 63.034 82.6577
3351.013146 63.731 67.4272
3375.295969 63.762 48.2397
3399.754755 62.768 28.5371
3424.390779 61.025 35.4092
3449.205326 60.246 59.8926
3474.199690 60.543 52.1147
3499.375173 60.886 35.8203
3524.733088 61.120 61.1489
3550.274757 61.655 97.0947
3576.001511 61.937 77.0278
3601.914692 61.679 62.3809
3628.015651 61.403 55.3013
3654.305748 61.524 56.1113
3680.786354 61.790 59.9585
3707.458849 61.617 59.7578
3734.324624 60.917 48.9878
3761.385080 60.272 63.1006
3788.641627 60.197 79.0840
3816.095686 61.026 113.6377
3843.748688 62.626 112.2466
3871.602076 63.157 91.2236
3899.657300 62.668 85.6152
3927.915825 62.560 87.7271
3956.379122 62.600 78.3965
3985.048676 62.380 70.0586
4013.925981 62.241 68.7754
4043.012544 62.976 78.6875
4072.309879 63.917 77.1680
4101.819515 63.792 67.4692
4131.542990 63.316 68.4487
4161.481854 63.525 68.9331
4191.637667 63.836 62.0190
4222.012001 63.867 57.0527
4252.606441 64.106 54.1870
4283.422580 64.188 45.7700
4314.462026 63.690 40.0493
4345.726396 63.421 44.7651
4377.217321 64.048 44.3379
4408.936442 64.731 34.9609
4440.885413 64.417 26.7686
4473.065899 63.715 30.5591
4505.479579 63.545 24.7290
4538.128141 63.410 16.3325
4571.013288 63.024 11.8276
4604.136735 62.582 10.1538
4637.500207 62.641 8.1211
4671.105446 62.885 -1.0532
4704.954201 62.485 -9.7217
4739.048239 61.853 8.5488
4773.389336 61.722 11.8081
4807.979283 62.140 -2.7373
4842.819883 62.216 -19.1323
4877.912952 61.442 3.7769
4913.260320 60.082 3.4214
4948.863830 59.111 -9.9604
4984.725337 59.544 116.3955
5020.846712 60.223 79.9883
5057.229836 59.889 53.1504
5093.876609 59.081 46.8076
5130.788938 58.852 50.8291
5167.968750 58.766 52.6221
5205.417982 58.815 69.6851
5243.138586 59.902 115.6045
5281.132530 61.190 95.9185
5319.401793 61.472 71.8047
5357.948371 60.625 64.2354
5396.774274 60.272 67.8311
5435.881525 60.697 56.5869
5475.272163 60.979 73.2324
5514.948243 61.610 96.8364
5554.911831 61.827 79.9282
5595.165012 61.171 65.4321
5635.709884 60.459 63.7593
5676.548561 60.366 63.7158
5717.683172 60.766 65.1113
5759.115861 61.626 73.0405
5800.848789 62.281 64.3926
5842.884130 62.383 56.3584
5885.224077 62.358 48.7778
5927.870837 62.262 40.7427
5970.826633 62.050 35.7358
6014.093704 61.451 32.8423
6057.674306 60.684 38.8198
6101.570711 60.589 41.4736
6145.785208 60.894 35.8931
6190.320101 61.130 30.2100
6235.177712 60.895 23.2124
6280.360380 60.538 28.4531
6325.870460 60.308 37.3706
6371.710325 59.640 40.2241
6417.882365 58.894 48.5625
6464.388986 58.605 54.5439
6511.232613 58.431 56.6992
6558.415689 58.658 67.7612
6605.940673 59.894 75.8315
6653.810042 61.415 71.4556
6702.026292 62.521 71.2026
6750.591937 63.428 69.1987
6799.509509 64.113 59.6396
6848.781558 64.240 49.1079
6898.410653 63.976 42.0122
6948.399380 63.857 40.8521
6998.750346 64.393 41.5889
7049.466176 64.909 32.9805
7100.549514 64.799 23.6094
7152.003023 64.333 16.6890
7203.829385 64.017 17.1216
7256.031302 64.331 20.2788
7308.611496 64.624 11.4712
7361.572708 64.301 -0.7793
7414.917698 63.469 -8.0444
7468.649249 62.600 -10.9580
7522.770160 62.139 -7.3115
7577.283253 62.274 -9.4922
7632.191371 62.346 -18.4224
7687.497376 62.274 -33.7358
7743.204151 61.591 -51.3242
7799.314600 60.174 -21.2183
7855.831649 58.690 -6.9224
7912.758244 57.632 -5.0361
7970.097352 57.578 42.9380
8027.851962 58.552 60.6235
8086.025087 59.575 51.6680
8144.619758 60.495 44.4746
8203.639030 61.124 34.6172
8263.085980 61.508 29.9287
8322.963708 61.936 30.6787
8383.275334 61.838 24.7451
8444.024002 61.504 23.2827
8505.212881 61.723 20.3198
8566.845160 62.024 12.2500
8628.924051 62.110 8.8306
8691.452792 62.496 6.0430
8754.434642 62.708 -8.3228
8817.872884 61.852 -28.2676
8881.770826 60.470 -29.4033
8946.131799 59.955 21.1421
9010.959157 60.342 34.9233
9076.256282 60.375 33.3833
9142.026576 60.644 44.8130
9208.273470 61.671 47.3477
9275.000415 62.340 37.0601
9342.210891 62.116 25.8188
9409.908403 61.999 25.5215
9478.096478 62.837 29.4399
9546.778672 63.690 20.1357
9615.958566 63.749 7.7373
9685.639765 63.355 1.2925
9755.825904 63.105 -1.2354
9826.520640 62.875 -7.9277
9897.727659 62.136 -16.0962
9969.450674 61.362 -14.2139
10041.693423 61.537 -10.2578
10114.459673 62.045 -16.4424
10187.753217 62.050 -22.6006
10261.577877 61.412 -31.6372
10335.937500 60.528 -33.1558
10410.835964 59.789 -29.9438
10486.277173 59.095 -34.8296
10562.265060 58.052 -31.8716
10638.803587 57.395 -1.8477
10715.896743 57.614 14.6499
10793.548548 58.309 18.4131
10871.763050 59.529 24.7827
10950.544327 60.812 16.6797
11029.896485 61.254 4.8613
11109.823662 61.282 -0.2197
11190.330024 61.543 -6.1616
11271.419768 61.539 -18.3379
11353.097122 60.810 -28.8369
11435.366344 59.727 -31.8130
11518.231722 58.847 -34.4126
11601.697577 57.900 -38.6328
11685.768261 56.899 -28.2036
11770.448155 56.670 -10.6240
11855.741674 57.115 -9.1479
11941.653265 57.332 -11.5918
12028.187408 57.444 -8.8926
12115.348612 57.378 -14.1680
12203.141422 56.837 -20.2769
12291.570415 56.267 -17.3062
12380.640201 55.797 -15.9746
12470.355424 55.391 -6.0083
12560.720760 56.341 22.8481
12651.740920 58.056 21.2817
12743.420650 59.384 12.2319
12835.764729 60.275 3.7681
12928.777972 60.545 -7.8877
13022.465227 60.122 -17.0977
13116.831378 59.312 -19.3965
13211.881345 58.541 -18.8789
13307.620084 58.131 -15.5513
13404.052584 58.432 -9.1978
13501.183875 59.204 -8.4312
13599.019019 59.964 -12.9893
13697.563116 60.533 -20.2881
13796.821305 60.875 -29.9160
13896.798760 60.650 -40.9883
13997.500692 59.925 -49.5449
14098.932352 58.961 -58.9141
14201.099028 57.479 -67.4189
14304.006046 55.699 -64.3589
14407.658770 54.617 -55.1782
14512.062604 54.389 -48.0981
14617.222992 54.676 -46.4810
14723.145416 54.666 -55.1963
14829.835397 53.942 -63.1411
14937.298497 52.894 -66.8696
15045.540320 51.582 -65.9668
15154.566507 50.661 -51.6250
15264.382743 50.580 -46.2520
15374.994752 50.750 -45.2573
15486.408302 50.779 -48.0840
15598.629201 50.263 -53.8730
15711.663298 49.475 -48.1616
15825.516487 49.218 -44.3921
15940.194703 49.166 -37.4604
16055.703925 49.280 -33.8438
16172.050174 49.546 -39.0444
16289.239516 49.867 -48.3535
16407.278061 49.560 -65.6440
16526.171961 48.308 -82.9092
16645.927415 47.159 -104.7227
16766.550667 47.516 85.7432
16888.048005 48.630 48.7686
17010.425762 49.727 32.0400
17133.690320 50.428 17.1172
17257.848103 50.430 7.3096
17382.905584 50.637 8.4766
17508.869284 51.415 9.2656
17635.745768 52.252 4.5020
17763.541652 52.363 -8.4424
17892.263597 51.673 -18.3447
18021.918315 50.536 -23.2383
18152.512564 49.438 -16.7920
18284.053153 49.288 -2.0059
18416.546939 50.232 6.8203
18550.000830 51.561 4.3193
18684.421783 52.437 -3.8574
18819.816805 52.659 -15.0498
18956.192956 52.261 -27.6045
19093.557344 51.287 -38.6484
19231.917131 49.618 -46.2422
19371.279531 47.511 -45.0869
19511.651807 45.804 -35.2295
19653.041280 45.089 -24.8623
19795.455318 44.984 -21.4336
19938.901348 45.074 -23.9180
