* Measurement data measured by REW V5.31
* Source: Scarlett 2i4 USB, MICROPHONE, R, volume: no control. Timing signal peak level -30.0 dBFS, measurement signal peak level -20.4 dBFS
* Format: 512k Log Swept Sine, 1 sweep at -18.0 dBFS using an acoustic timing reference
* Dated: Apr 16, 2024 9:26:17 AM
* REW Settings:
*  C-weighting compensation: Off
*  Target level: 75.0 dB
* Note: ; Delay -0.9057 ms (-311 mm, -(1 ft 0.23 in)) using estimated IR delay relative to Acoustic reference played from SPEAKER L with no timing offset
* Measurement: couch-p1-c
* Smoothing: 1/48 octave
* Frequency Step: 96 ppo
* Start Frequency: 10.093689 Hz
*
* Freq(Hz) SPL(dB) Phase(degrees)
10.093689 25.407 17.2010
10.166832 25.575 15.8451
10.240505 25.778 14.4987
10.314712 25.987 13.2088
10.389457 26.196 12.0242
10.464743 26.397 10.9828
10.540575 26.584 10.0334
10.616956 26.765 9.1679
10.693891 26.948 8.3967
10.771383 27.137 7.7337
10.849437 27.333 7.1986
10.928057 27.534 6.7694
11.007246 27.747 6.4070
11.087009 27.976 6.0762
11.167350 28.226 5.7910
11.248273 28.494 5.5875
11.329783 28.780 5.3881
11.411883 29.084 5.1186
11.494578 29.409 4.7629
11.577873 29.755 4.4080
11.661771 30.117 3.9801
11.746277 30.490 3.4026
11.831395 30.871 2.6522
11.917130 31.265 1.8225
12.003487 31.663 0.8760
12.090469 32.060 -0.2341
12.178081 32.453 -1.5212
12.266329 32.842 -2.9242
12.355216 33.225 -4.4370
12.444747 33.594 -6.0656
12.534926 33.949 -7.8285
12.625760 34.291 -9.6989
12.717251 34.616 -11.6300
12.809406 34.921 -13.5960
12.902228 35.207 -15.6561
12.995723 35.473 -17.7709
13.089895 35.718 -19.8691
13.184750 35.943 -21.9349
13.280292 36.145 -24.0441
13.376526 36.328 -26.1267
13.473458 36.493 -28.1068
13.571093 36.639 -30.0343
13.669434 36.768 -31.9200
13.768489 36.884 -33.7038
13.868261 36.989 -35.3539
13.968756 37.083 -36.9176
14.069979 37.170 -38.3849
14.171936 37.257 -39.7354
14.274632 37.341 -40.9673
14.378072 37.425 -42.1086
14.482261 37.513 -43.1849
14.587206 37.606 -44.1822
14.692910 37.703 -45.1117
14.799381 37.802 -46.0106
14.906624 37.904 -46.8933
15.014643 38.007 -47.7448
15.123446 38.107 -48.5648
15.233036 38.201 -49.3696
15.343421 38.290 -50.1554
15.454606 38.371 -50.8690
15.566596 38.442 -51.4961
15.679398 38.503 -52.0568
15.793018 38.561 -52.4832
15.907460 38.616 -52.7356
16.022732 38.672 -52.8405
16.138840 38.740 -52.7873
16.255788 38.826 -52.5441
16.373585 38.934 -52.1403
16.492234 39.074 -51.6832
16.611744 39.253 -51.1523
16.732119 39.466 -50.6036
16.853367 39.712 -50.2082
16.975494 39.992 -49.9260
17.098505 40.293 -49.8089
17.222408 40.601 -49.9562
17.347209 40.916 -50.3213
17.472914 41.221 -50.8769
17.599530 41.507 -51.6402
17.727063 41.772 -52.5767
17.855521 42.007 -53.5620
17.984909 42.209 -54.6421
18.115235 42.378 -55.7250
18.246506 42.515 -56.6831
18.378727 42.620 -57.5835
18.511907 42.701 -58.2733
18.646052 42.762 -58.7224
18.781169 42.812 -58.9267
18.917265 42.866 -58.7887
19.054347 42.930 -58.3255
19.192423 43.026 -57.5580
19.331499 43.164 -56.4634
19.471583 43.357 -55.1502
19.612682 43.622 -53.7355
19.754804 43.960 -52.2490
19.897956 44.369 -50.9790
20.042144 44.849 -49.8839
20.187378 45.379 -49.2004
20.333664 45.947 -48.9661
20.481010 46.537 -49.1683
20.629424 47.123 -49.9169
20.778913 47.698 -51.0766
20.929486 48.238 -52.6498
21.081150 48.738 -54.5938
21.233912 49.186 -56.7306
21.387782 49.574 -59.1128
21.542767 49.903 -61.5011
21.698874 50.168 -63.8898
21.856113 50.376 -66.1470
22.014492 50.534 -68.1142
22.174018 50.655 -69.8098
22.334700 50.760 -71.0352
22.496546 50.867 -71.8708
22.659566 51.007 -72.2969
22.823766 51.193 -72.3838
22.989157 51.444 -72.3839
23.155745 51.758 -72.3202
23.323542 52.119 -72.5131
23.492554 52.513 -72.9116
23.662790 52.908 -73.6198
23.834261 53.291 -74.5530
24.006973 53.642 -75.5445
24.180938 53.965 -76.5412
24.356163 54.269 -77.2553
24.532658 54.577 -77.7150
24.710431 54.927 -77.7511
24.889493 55.349 -77.5756
25.069853 55.877 -77.2998
25.251519 56.507 -77.3471
25.434502 57.232 -77.8904
25.618811 58.004 -79.2835
25.804456 58.790 -81.4931
25.991445 59.537 -84.5708
26.179790 60.220 -88.3760
26.369500 60.809 -92.7322
26.560584 61.292 -97.5017
26.753053 61.658 -102.4691
26.946917 61.907 -107.4153
27.142185 62.040 -112.2582
27.338869 62.072 -116.6239
27.536977 62.019 -120.5153
27.736522 61.920 -123.5812
27.937512 61.815 -125.8896
28.139959 61.758 -127.3048
28.343872 61.802 -128.2130
28.549264 61.973 -128.7432
28.756143 62.272 -129.5538
28.964522 62.666 -130.8352
29.174411 63.109 -132.8600
29.385821 63.543 -135.6459
29.598763 63.936 -139.0910
29.813248 64.251 -143.0760
30.029287 64.476 -147.3316
30.246891 64.599 -151.8040
30.466073 64.620 -156.1833
30.686842 64.541 -160.3358
30.909212 64.370 -164.1337
31.133193 64.123 -167.2812
31.358797 63.827 -169.6713
31.586035 63.516 -171.1047
31.814921 63.252 -171.5033
32.045465 63.101 -171.0326
32.277680 63.114 -169.9282
32.511577 63.322 -168.8635
32.747169 63.691 -168.4167
32.984469 64.166 -168.8851
33.223488 64.668 -170.4779
33.464239 65.128 -173.0138
33.706735 65.507 -176.2208
33.950987 65.782 -179.8667
34.197010 65.952 176.4662
34.444816 66.036 173.0355
34.694417 66.068 169.9956
34.945827 66.092 167.4866
35.199059 66.160 165.3726
35.454126 66.298 163.3470
35.711041 66.506 161.1076
35.969818 66.759 158.3226
36.230470 67.002 154.8762
36.493011 67.187 150.7947
36.757455 67.278 146.2749
37.023814 67.251 141.5329
37.292104 67.101 136.8888
37.562338 66.840 132.6716
37.834530 66.499 129.0768
38.108695 66.117 126.2349
38.384846 65.742 124.1703
38.662999 65.416 122.7250
38.943167 65.161 121.5732
39.225365 64.970 120.4334
39.509608 64.815 119.1334
39.795911 64.667 117.6274
40.084289 64.498 115.9896
40.374756 64.292 114.3784
40.667328 64.048 112.9908
40.962020 63.779 112.0076
41.258848 63.509 111.5605
41.557827 63.275 111.7021
41.858972 63.116 112.3574
42.162299 63.068 113.2953
42.467824 63.142 114.1630
42.775564 63.324 114.5963
43.085533 63.574 114.3490
43.397749 63.844 113.3573
43.712227 64.096 111.7134
44.028983 64.306 109.5840
44.348036 64.465 107.1316
44.669400 64.575 104.4723
44.993093 64.638 101.6688
45.319131 64.653 98.7522
45.647532 64.617 95.7560
45.978313 64.524 92.7446
46.311491 64.372 89.8200
46.647083 64.165 87.1033
46.985107 63.917 84.6985
47.325581 63.645 82.6549
47.668521 63.369 80.9490
48.013947 63.101 79.5007
48.361876 62.844 78.2194
48.712326 62.597 77.0493
49.065315 62.356 75.9815
49.420863 62.120 75.0263
49.778987 61.895 74.1694
50.139706 61.682 73.3521
50.503039 61.478 72.4981
50.869005 61.269 71.5679
51.237623 61.042 70.5996
51.608912 60.789 69.6969
51.982891 60.516 68.9626
52.359580 60.234 68.4232
52.739000 59.950 68.0083
53.121168 59.657 67.6271
53.506106 59.333 67.2922
53.893833 58.963 67.1867
54.284370 58.551 67.6208
54.677737 58.132 68.8727
55.073955 57.763 70.9721
55.473043 57.489 73.6067
55.875024 57.314 76.3093
56.279917 57.197 78.8089
56.687745 57.091 81.2358
57.098527 56.979 84.1065
57.512287 56.917 88.0754
57.929045 57.028 93.4682
58.348822 57.447 99.7770
58.771642 58.218 105.6967
59.197525 59.265 110.0795
59.626495 60.476 112.6068
60.058573 61.780 113.4010
60.493782 63.131 112.4183
60.932145 64.466 109.4075
61.373685 65.698 104.2994
61.818424 66.739 97.3339
62.266386 67.525 89.0932
62.717593 68.034 80.2552
63.172071 68.288 71.5382
63.629842 68.348 63.5571
64.090930 68.303 56.5785
64.555359 68.247 50.4985
65.023154 68.242 44.8455
65.494339 68.293 39.0944
65.968938 68.367 32.8993
66.446976 68.426 26.1920
66.928478 68.449 19.0470
67.413469 68.427 11.5370
67.901975 68.360 3.6709
68.394021 68.249 -4.5569
68.889632 68.093 -13.1567
69.388835 67.899 -22.0822
69.891655 67.687 -31.3370
70.398118 67.492 -41.0420
70.908252 67.337 -51.5135
71.422083 67.219 -63.1622
71.939636 67.101 -76.2632
72.460941 66.928 -90.7465
72.986023 66.671 -106.3178
73.514909 66.334 -122.4504
74.047629 65.955 -138.6853
74.584208 65.585 -154.6062
75.124676 65.273 -169.8419
75.669061 65.071 175.9072
76.217390 65.035 162.7924
76.769692 65.211 150.5073
77.325997 65.573 138.3796
77.886333 66.008 125.7988
78.450730 66.386 112.7569
79.019216 66.626 99.6822
79.591822 66.727 87.1891
80.168577 66.735 75.5969
80.749512 66.713 64.9143
81.334656 66.706 54.9362
81.924040 66.741 45.3852
82.517696 66.826 35.9656
83.115653 66.944 26.3985
83.717943 67.062 16.5639
84.324598 67.153 6.5831
84.935649 67.214 -3.3677
85.551128 67.259 -13.2592
86.171066 67.282 -23.1971
86.795497 67.261 -33.2247
87.424453 67.174 -43.2082
88.057967 67.015 -53.0010
88.696071 66.779 -62.6737
89.338800 66.419 -72.4523
89.986185 65.831 -82.2474
90.638262 64.899 -90.9769
91.295065 63.643 -95.7035
91.956626 62.624 -90.8148
92.622982 63.094 -75.2679
93.294166 65.124 -65.9260
93.970214 67.424 -69.3342
94.651161 69.297 -79.9956
95.337042 70.599 -93.8616
96.027894 71.354 -108.6584
96.723752 71.640 -122.9792
97.424652 71.559 -136.0101
98.130631 71.199 -147.3818
98.841726 70.637 -156.8621
99.557974 69.957 -164.1550
100.279412 69.273 -169.1812
101.006078 68.703 -172.4017
101.738010 68.318 -174.5098
102.475245 68.145 -176.1522
103.217823 68.153 -178.1907
103.965782 68.238 178.7286
104.719161 68.283 174.8857
105.477999 68.251 171.0691
106.242336 68.177 167.8278
107.012212 68.133 165.2424
107.787666 68.169 162.8219
108.568740 68.253 159.6489
109.355474 68.272 155.3729
110.147909 68.127 150.7329
110.946086 67.820 146.7932
111.750047 67.415 143.8545
112.559834 66.934 141.3910
113.375489 66.330 139.5361
114.197055 65.622 139.9443
115.024574 65.033 144.0623
115.858089 64.868 150.7253
116.697645 65.234 157.1229
117.543284 65.979 161.3488
118.395051 66.887 163.1252
119.252990 67.831 163.2366
120.117147 68.789 162.3341
120.987565 69.767 160.4199
121.864291 70.751 157.2847
122.747370 71.719 152.8406
123.636848 72.640 146.9078
124.532771 73.463 139.1758
125.435187 74.103 129.4175
126.344142 74.459 117.6490
127.259684 74.426 104.3423
128.181860 73.937 90.4773
129.110718 72.995 76.9814
130.046308 71.625 64.0016
130.988677 69.805 51.3033
131.937875 67.489 38.6278
132.893951 64.757 23.5715
133.856956 62.430 -7.7551
134.826938 62.797 -93.6851
135.803950 65.480 -137.0693
136.788041 68.122 -159.1926
137.779264 70.026 -177.6281
138.777669 71.216 166.0864
139.783309 71.856 152.0867
140.796237 72.076 140.0048
141.816504 71.933 129.5922
142.844165 71.473 121.3838
143.879273 70.804 116.1066
144.921881 70.103 114.3077
145.972045 69.628 115.9020
147.029819 69.605 119.0996
148.095257 70.050 121.4027
149.168417 70.773 121.2169
150.249353 71.546 118.1934
151.338121 72.210 112.9528
152.434780 72.704 106.3101
153.539385 73.017 98.6239
154.651995 73.133 89.9076
155.772667 73.022 80.1713
156.901460 72.656 69.5482
158.038432 72.025 58.1362
159.183644 71.140 45.4701
160.337154 70.019 30.3004
161.499023 68.737 10.0983
162.669312 67.577 -20.3868
163.848081 67.139 -67.2145
165.035392 67.742 -116.4543
166.231306 68.835 -150.6315
167.435887 69.839 -173.2479
168.649196 70.670 171.7794
169.871298 71.437 161.4200
171.102255 72.134 152.4340
172.342133 72.625 143.2659
173.590995 72.791 134.1287
174.848907 72.574 125.9219
176.115934 72.055 121.0642
177.392143 71.649 122.9442
178.677599 71.848 127.7819
179.972371 72.470 127.8212
181.276525 73.062 124.5226
182.590129 73.563 121.6730
183.913252 74.108 119.3304
185.245964 74.672 115.2603
186.588332 75.058 108.6288
187.940428 75.072 100.4733
189.302322 74.621 92.6587
190.674085 73.764 88.0093
192.055788 72.863 90.3776
193.447503 72.517 97.8828
194.849303 72.774 101.3694
196.261262 73.170 100.9731
197.683452 73.565 101.0090
199.115948 74.140 102.4500
200.558824 75.026 103.6475
202.012156 76.084 101.6316
203.476019 77.008 95.3706
204.950490 77.555 86.1190
206.435646 77.613 75.7953
207.931564 77.191 66.5466
209.438322 76.433 60.3770
210.955998 75.624 58.2179
212.484672 75.041 58.1201
214.024424 74.643 56.0979
215.575333 74.131 52.5642
217.137481 73.465 52.1277
218.710948 73.069 57.1787
220.295818 73.419 64.1785
221.892172 74.359 66.2662
223.500094 75.261 60.9735
225.119668 75.652 51.0487
226.750978 75.395 40.7128
228.394109 74.602 33.2740
230.049147 73.567 30.7910
231.716178 72.676 32.1093
233.395289 72.071 32.7196
235.086567 71.584 32.0345
236.790102 71.235 34.0414
238.505980 71.393 39.8540
240.234293 72.031 40.6063
241.975130 72.551 33.8176
243.728581 72.557 23.8552
245.494739 71.905 12.9738
247.273695 70.527 4.6271
249.065542 68.699 7.2323
250.870374 67.339 20.8508
252.688284 66.963 26.8676
254.519367 66.813 23.8920
256.363720 66.208 18.0128
258.221437 65.133 13.1857
260.092616 64.660 29.8778
261.977354 66.318 91.2955
263.875750 68.848 91.7111
265.787903 70.868 80.2772
267.713911 72.104 66.4846
269.653877 72.567 52.8256
271.607900 72.533 43.3947
273.576083 72.379 36.8618
275.558528 72.234 30.8446
277.555338 72.292 27.9697
279.566619 72.716 23.9889
281.592474 73.199 14.5614
283.633009 73.363 1.1093
285.688331 72.983 -15.3440
287.758546 71.875 -33.0292
289.843763 70.031 -49.0826
291.944090 67.666 -66.1813
294.059638 65.217 -88.5488
296.190515 64.001 70.4935
298.336833 64.591 46.0590
300.498705 65.474 27.1187
302.676243 66.035 13.5515
304.869559 66.240 0.7668
307.078770 66.225 -8.6869
309.303989 66.413 -16.4309
311.545334 66.560 -31.9878
313.802919 66.053 -52.4480
316.076865 64.784 -71.5620
318.367288 63.118 -89.1096
320.674309 61.470 -111.0405
322.998047 60.254 -142.6646
325.338624 60.563 68.1467
327.696162 62.595 -22.4187
330.070783 64.679 -62.5967
332.462612 65.863 -99.7751
334.871773 66.061 -131.4944
337.298392 65.672 -154.5293
339.742595 65.251 -169.8616
342.204510 65.092 179.1741
344.684265 65.049 168.1702
347.181989 65.032 161.6138
349.697813 65.691 167.4856
352.231868 66.952 164.9578
354.784285 67.810 151.6501
357.355198 68.032 139.7839
359.944741 68.147 134.0503
362.553049 68.598 129.3440
365.180258 69.320 122.4565
367.826505 69.977 111.0952
370.491927 70.150 94.9690
373.176665 69.611 77.7681
375.880856 68.504 63.5935
378.604644 67.217 50.2991
381.348169 65.821 31.1377
384.111575 64.086 5.0796
386.895006 62.229 -32.1204
389.698607 61.264 -80.5186
392.522524 62.328 -115.5210
395.366904 64.746 -135.0598
398.231895 67.284 -150.3169
401.117648 69.351 -166.6228
404.024312 70.589 173.9502
406.952038 70.839 154.9331
409.900981 70.480 143.6343
412.871292 70.424 141.1946
415.863128 71.160 139.2571
418.876643 72.125 129.6609
421.911996 72.692 114.7368
424.969344 72.666 97.2944
428.048847 71.822 77.7029
431.150666 70.034 64.7336
434.274961 67.930 60.7395
437.421897 66.206 44.1765
440.591636 64.811 7.0212
443.784345 64.734 -81.0532
447.000189 66.557 -136.0886
450.239337 68.443 -164.0410
453.501956 69.956 179.7417
456.788219 71.727 173.0161
460.098294 73.551 162.5645
463.432356 74.904 147.2410
466.790578 75.536 129.5918
470.173135 75.511 114.4517
473.580203 75.344 104.8789
477.011961 75.382 95.0386
480.468586 75.407 81.9492
483.950259 75.180 67.0632
487.457163 74.607 50.0801
490.989478 73.517 29.2202
494.547390 71.661 4.9785
498.131084 69.362 -13.5535
501.740748 68.667 119.4192
505.376568 69.996 98.9404
509.038735 71.017 72.4568
512.727439 70.950 47.7307
516.442874 70.110 31.2839
520.185232 69.808 28.2261
523.954708 70.919 22.4380
527.751500 72.155 0.5408
531.575805 72.448 -29.1956
535.427822 71.731 -57.9595
539.307753 70.322 -81.8418
543.215800 68.814 -94.5503
547.152165 68.538 -96.7876
551.117055 69.732 -105.6360
555.110677 70.924 -125.8167
559.133237 71.214 -151.6646
563.184947 70.396 -177.9675
567.266018 68.598 162.7878
571.376661 66.999 -157.3530
575.517092 67.279 -133.7500
579.687526 68.276 -147.6384
583.888181 69.277 -156.5930
588.119275 70.581 -159.6719
592.381030 71.555 -173.8945
596.673667 71.364 165.7998
600.997410 69.982 152.2219
605.352485 68.275 155.3301
609.739119 67.888 172.6187
614.157540 68.882 175.2288
618.607979 69.641 164.4045
623.090667 69.450 151.9832
627.605839 68.682 147.3911
632.153730 68.581 155.1702
636.734576 70.073 165.3223
641.348617 72.181 163.7871
645.996094 73.678 147.4363
650.677248 74.241 126.6221
655.392323 73.991 105.9966
660.141566 73.107 86.5854
664.925224 71.646 68.1448
669.743546 69.606 55.5168
674.596784 67.500 49.9082
679.485191 66.111 43.0037
684.409020 65.971 34.4307
689.368530 66.673 15.8472
694.363979 67.104 -12.1521
699.395626 66.824 -40.9138
704.463736 66.143 -65.3469
709.568570 65.497 -83.3733
714.710396 66.088 -74.1716
719.889483 68.246 -66.1714
725.106099 70.140 -83.8186
730.360516 71.237 -105.2703
735.653010 71.601 -126.3218
740.983855 71.302 -145.0300
746.353329 70.628 -152.9670
751.761713 70.459 -152.4827
757.209288 70.555 -165.6538
762.696339 70.187 177.7295
768.223151 69.500 165.1501
773.790013 68.897 150.3384
779.397214 67.895 124.7668
785.045047 65.965 92.0959
790.733808 63.381 52.5186
796.463791 62.176 16.0996
802.235296 64.286 1.0508
808.048623 67.343 -28.9136
813.904077 69.970 -56.6680
819.801961 71.904 -81.7432
825.742584 72.692 -109.2939
831.726255 72.248 -134.5127
837.753287 70.930 -155.0684
843.823992 69.111 -164.2456
849.938689 67.788 -157.3306
856.097695 67.418 -170.9785
862.301332 67.695 -105.5088
868.549922 69.106 -74.3291
874.843793 70.880 -95.5161
881.183272 71.780 -119.5986
887.568689 71.434 -138.4482
894.000378 70.932 -140.2490
900.478673 71.076 -147.1768
907.003913 70.701 -164.6377
913.576437 69.380 -170.9624
920.196588 68.567 -164.6714
926.864712 68.226 -179.3657
933.581156 66.948 157.7905
940.346270 64.969 154.7559
947.160407 63.751 -161.9229
954.023921 63.919 -171.3438
960.937172 64.463 146.1318
967.900519 64.346 -27.3105
974.914325 64.015 -65.2290
981.978956 64.455 -74.1255
989.094780 65.293 -87.8682
996.262169 65.964 -102.9800
1003.481495 67.265 -26.1533
1010.753136 68.962 -38.6992
1018.077470 70.186 -59.3809
1025.454879 71.061 -75.5586
1032.885748 71.725 -89.8799
1040.370463 72.373 -101.2080
1047.909417 72.817 -119.5273
1055.503000 71.949 -144.8267
1063.151610 69.470 -158.1406
1070.855645 66.679 -153.7471
1078.615506 66.229 -136.6406
1086.431599 68.014 -46.2876
1094.304330 69.290 -71.1616
1102.234110 69.091 -95.5679
1110.221353 68.106 -104.6377
1118.266475 67.674 -107.8857
1126.369895 68.381 -100.8271
1134.532035 70.022 -91.9453
1142.753322 71.166 -112.7217
1151.034184 70.847 -141.0518
1159.375052 69.215 -163.6001
1167.776361 67.287 -178.2412
1176.238550 66.025 147.7119
1184.762060 64.570 65.4692
1193.347334 62.811 -25.3423
1201.994821 62.082 -38.3691
1210.704971 62.821 -41.5684
1219.478238 64.353 -8.8687
1228.315080 66.358 -1.0269
1237.215957 67.393 -26.2549
1246.181334 67.254 -46.4194
1255.211678 66.562 -59.5703
1264.307459 65.719 -67.1157
1273.469152 64.843 -71.9878
1282.697235 64.371 -70.5669
1291.992188 64.545 -73.0713
1301.354495 64.758 -80.7520
1310.784647 64.647 -93.2222
1320.283132 63.501 -105.8989
1329.850448 61.575 -94.0845
1339.487093 61.165 -73.9995
1349.193569 62.595 -84.5146
1358.970381 63.752 -67.6147
1368.818041 64.348 -8.9805
1378.737061 65.173 -28.9150
1388.727958 65.823 -63.9023
1398.791253 65.387 -110.4971
1408.927471 63.792 -170.9453
1419.137140 62.503 120.7905
1429.420793 62.992 78.4561
1439.778965 63.849 45.5200
1450.212197 63.528 21.4165
1460.721033 62.779 18.5405
1471.306019 63.235 32.3921
1481.967709 64.405 25.1650
1492.706658 64.696 4.7886
1503.523426 64.240 -11.1006
1514.418576 64.214 -28.2329
1525.392678 64.791 -61.3467
1536.446302 65.314 147.2554
1547.580025 65.833 69.3706
1558.794428 66.939 32.2422
1570.090095 67.821 -6.3667
1581.467615 67.855 -49.5908
1592.927581 67.801 -98.0107
1604.470591 67.930 -154.3027
1616.097246 67.295 156.5972
1627.808153 66.193 133.9150
1639.603922 66.188 124.4878
1651.485168 66.891 106.1714
1663.452510 66.890 83.6387
1675.506573 65.878 70.4121
1687.647984 64.875 74.8403
1699.877377 64.540 68.2949
1712.195390 64.199 68.2983
1724.602663 63.807 66.5347
1737.099845 62.747 68.3232
1749.687587 61.807 77.0210
1762.366544 61.838 55.1772
1775.137379 62.725 -1.7388
1788.000756 63.706 -134.5483
1800.957346 64.606 -167.8599
1814.007826 66.629 -165.5923
1827.152874 68.908 -177.5132
1840.393177 70.031 156.2764
1853.729425 69.603 129.2349
1867.162312 67.856 117.7671
1880.692540 66.045 138.5342
1894.320813 65.730 143.3994
1908.047843 66.209 137.9487
1921.874344 66.542 130.0850
1935.801038 67.020 124.7422
1949.828650 68.172 112.6680
1963.957912 68.620 76.5747
1978.189561 68.464 -5.9521
1992.524338 69.434 -93.0400
2006.962991 70.443 -133.3164
2021.506272 70.994 -154.5244
2036.154940 71.432 -169.9526
2050.909758 71.404 169.0835
2065.771495 71.257 151.5747
2080.740927 71.317 -158.4692
2095.818833 71.345 -151.0771
2111.006001 71.578 -159.0542
2126.303220 72.422 -175.4463
2141.711290 72.771 157.9355
2157.231013 72.425 127.3027
2172.863198 72.071 74.9546
2188.608660 71.832 -29.5127
2204.468221 71.651 -82.3198
2220.442706 70.744 -103.4404
2236.532950 70.131 -100.5132
2252.739789 70.965 -104.4575
2269.064070 72.327 -115.8711
2285.506644 73.301 -131.8213
2302.068367 73.756 -152.0884
2318.750104 72.964 -178.8726
2335.552723 71.080 166.8618
2352.477101 70.584 -87.1338
2369.524119 71.433 -102.4277
2386.694668 71.934 -95.5601
2403.989641 72.146 -82.6167
2421.409941 72.418 -73.2471
2438.956476 72.958 -61.0439
2456.630160 73.127 -70.9463
2474.431915 72.427 -85.4053
2492.362668 71.302 -92.8711
2510.423356 70.386 -91.6099
2528.614918 69.829 -88.5312
2546.938304 69.291 -82.7759
2565.394469 68.654 -82.5825
2583.984375 68.431 -70.2900
2602.708991 69.056 -47.1362
2621.569293 70.114 -30.5015
2640.566265 70.976 -26.2690
2659.700897 71.176 -32.7422
2678.974186 71.101 -34.2642
2698.387137 70.856 -34.0093
2717.940763 70.958 -22.7109
2737.636082 71.884 -18.0459
2757.474121 72.477 -26.7246
2777.455915 71.996 -36.4087
2797.582506 70.603 -33.1377
2817.854942 69.758 -13.0645
2838.274281 70.062 -2.3154
2858.841586 70.632 1.2109
2879.557931 70.986 1.0020
2900.424394 71.536 11.6299
2921.442065 72.389 13.9585
2942.612039 72.771 5.7266
2963.935418 72.285 -1.3203
2985.413316 71.231 6.1729
3007.046852 71.012 28.4966
3028.837153 71.678 30.1235
3050.785356 71.689 22.9648
3072.892604 71.167 24.7422
3095.160050 71.264 36.8052
3117.588856 71.976 48.6870
3140.180190 72.280 48.6289
3162.935230 71.543 44.2349
3185.855163 70.172 47.2388
3208.941182 69.348 57.9688
3232.194493 69.391 62.2222
3255.616307 69.318 62.6885
3279.207844 68.732 65.4346
3302.970336 68.190 79.5889
3326.905021 68.439 93.3467
3351.013146 68.698 96.9941
3375.295969 68.476 96.6133
3399.754755 68.022 98.5913
3424.390779 67.769 100.1396
3449.205326 67.790 103.2437
3474.199690 67.892 109.2954
3499.375173 67.923 118.3955
3524.733088 68.027 139.9116
3550.274757 68.243 148.3242
3576.001511 68.623 136.5073
3601.914692 68.478 117.9961
3628.015651 67.166 105.3286
3654.305748 65.589 140.8379
3680.786354 65.885 165.9629
3707.458849 67.093 135.8184
3734.324624 67.509 51.3638
3761.385080 66.783 -98.3740
3788.641627 66.047 -147.4565
3816.095686 65.759 124.5063
3843.748688 65.365 17.9463
3871.602076 65.005 -4.6709
3899.657300 65.899 0.0649
3927.915825 67.523 -2.7158
3956.379122 68.248 -20.6846
3985.048676 67.605 -29.3491
4013.925981 66.252 -16.3394
4043.012544 65.106 1.9604
4072.309879 65.079 21.5215
4101.819515 66.346 44.2646
4131.542990 67.779 40.9019
4161.481854 68.403 28.9062
4191.637667 67.849 20.9028
4222.012001 66.821 33.2847
4252.606441 66.853 79.6592
4283.422580 68.061 94.0698
4314.462026 68.923 88.8564
4345.726396 69.104 86.7354
4377.217321 69.104 87.2437
4408.936442 68.827 85.1968
4440.885413 68.149 97.4302
4473.065899 68.133 126.0225
4505.479579 69.230 139.0449
4538.128141 70.018 132.3496
4571.013288 69.647 124.4414
4604.136735 68.453 120.6250
4637.500207 67.293 142.9932
4671.105446 67.242 -175.4497
4704.954201 67.807 -168.4199
4739.048239 68.437 -162.9873
4773.389336 68.508 -167.6353
4807.979283 67.522 -170.9941
4842.819883 66.560 -137.0327
4877.912952 67.238 -102.9004
4913.260320 68.255 -103.5464
4948.863830 68.690 -104.2100
4984.725337 68.643 -101.8062
5020.846712 68.271 -94.3730
5057.229836 67.950 -76.6089
5093.876609 67.734 -61.6196
5130.788938 67.843 -52.5767
5167.968750 68.035 -50.6245
5205.417982 67.350 -50.1230
5243.138586 66.018 -27.5903
5281.132530 65.728 -2.3354
5319.401793 66.528 13.1494
5357.948371 67.481 22.4878
5396.774274 67.979 24.6636
5435.881525 67.921 29.4565
5475.272163 68.056 53.6211
5514.948243 68.486 68.2183
5554.911831 68.687 71.0112
5595.165012 68.627 76.3853
5635.709884 68.241 80.1880
5676.548561 67.331 95.2026
5717.683172 66.778 120.6787
5759.115861 67.029 135.2144
5800.848789 66.952 137.7139
5842.884130 66.406 153.2051
5885.224077 66.714 178.4849
5927.870837 67.894 -161.7012
5970.826633 68.966 -148.7378
6014.093704 69.007 -149.8872
6057.674306 68.402 -142.8677
6101.570711 68.092 -129.8154
6145.785208 67.984 -114.5020
6190.320101 68.158 -98.1865
6235.177712 68.207 -88.4644
6280.360380 68.000 -83.7285
6325.870460 67.365 -75.2153
6371.710325 67.143 -50.5718
6417.882365 67.632 -35.6001
6464.388986 67.797 -31.2407
6511.232613 67.331 -29.5781
6558.415689 66.511 -17.8730
6605.940673 66.255 3.3784
6653.810042 66.111 7.0356
6702.026292 65.368 9.7319
6750.591937 64.678 33.8721
6799.509509 64.668 93.8091
6848.781558 64.821 102.6353
6898.410653 64.395 133.4307
6948.399380 64.953 -162.3833
6998.750346 66.173 -144.4419
7049.466176 66.574 -138.6851
7100.549514 66.652 -128.7139
7152.003023 66.916 -111.1816
7203.829385 67.158 -99.2979
7256.031302 67.081 -91.7021
7308.611496 67.002 -76.7183
7361.572708 67.206 -60.2378
7414.917698 67.521 -46.5718
7468.649249 67.623 -33.3564
7522.770160 67.808 -10.4331
7577.283253 68.465 8.7397
7632.191371 69.267 20.9707
7687.497376 69.764 29.9761
7743.204151 69.792 39.7319
7799.314600 69.693 53.8242
7855.831649 69.499 66.3188
7912.758244 69.067 80.6646
7970.097352 68.635 96.3838
8027.851962 68.340 114.8149
8086.025087 68.264 135.4609
8144.619758 68.355 160.5786
8203.639030 68.456 179.7578
8263.085980 68.602 -165.1465
8322.963708 68.653 -153.3843
8383.275334 68.393 -137.0649
8444.024002 68.232 -119.7114
8505.212881 67.679 -105.0786
8566.845160 66.455 -85.1431
8628.924051 65.552 -56.6665
8691.452792 65.561 -33.8125
8754.434642 65.676 -15.7568
8817.872884 65.793 5.4551
8881.770826 65.843 20.6230
8946.131799 65.415 35.3984
9010.959157 65.290 74.5547
9076.256282 65.712 108.5776
9142.026576 66.150 134.8950
9208.273470 67.289 165.0552
9275.000415 68.467 178.2930
9342.210891 68.755 -174.0522
9409.908403 68.569 -158.4824
9478.096478 68.383 -142.7402
9546.778672 67.752 -129.3628
9615.958566 66.946 -102.7212
9685.639765 66.838 -72.6855
9755.825904 67.114 -50.9517
9826.520640 67.618 -25.0425
9897.727659 67.961 -9.6382
9969.450674 67.349 0.7275
10041.693423 65.863 22.4014
10114.459673 64.583 51.2310
10187.753217 64.064 83.6353
10261.577877 64.918 131.1782
10335.937500 66.383 156.5835
10410.835964 67.062 172.2642
10486.277173 67.130 -167.4360
10562.265060 67.090 -145.4316
10638.803587 67.116 -122.0566
10715.896743 67.462 -94.5820
10793.548548 67.947 -70.5791
10871.763050 68.397 -45.0518
10950.544327 68.901 -23.6484
11029.896485 68.889 -8.2954
11109.823662 68.552 16.6011
11190.330024 68.429 42.7207
11271.419768 68.228 67.0181
11353.097122 68.359 95.2476
11435.366344 68.688 117.3257
11518.231722 68.961 140.4854
11601.697577 69.111 159.0044
11685.768261 68.582 175.3076
11770.448155 67.589 -160.8848
11855.741674 66.647 -135.1172
11941.653265 65.888 -100.3584
12028.187408 65.702 -63.3867
12115.348612 65.577 -38.0771
12203.141422 65.206 -13.4600
12291.570415 64.577 11.6885
12380.640201 63.818 47.1924
12470.355424 63.954 98.5801
12560.720760 65.105 141.7915
12651.740920 66.330 169.8037
12743.420650 66.973 -169.2881
12835.764729 67.219 -143.5234
12928.777972 67.425 -117.1758
13022.465227 67.895 -87.9639
13116.831378 68.474 -63.5684
13211.881345 68.564 -41.8936
13307.620084 68.105 -20.5459
13404.052584 66.987 3.9834
13501.183875 65.842 39.8350
13599.019019 65.722 79.7542
13697.563116 66.245 110.5737
13796.821305 66.232 134.8447
13896.798760 65.648 162.7864
13997.500692 65.000 -162.9631
14098.932352 64.790 -124.2634
14201.099028 65.127 -88.9663
14304.006046 65.371 -60.0444
14407.658770 65.148 -30.4624
14512.062604 64.725 0.9351
14617.222992 64.449 34.6624
14723.145416 64.373 67.2810
14829.835397 64.211 97.6829
14937.298497 63.686 128.7690
15045.540320 63.000 163.9866
15154.566507 62.498 -158.0181
15264.382743 62.342 -121.2998
15374.994752 62.156 -88.6597
15486.408302 61.719 -53.8411
15598.629201 61.274 -13.0059
15711.663298 61.323 31.1230
15825.516487 61.908 70.1990
15940.194703 62.480 103.6978
16055.703925 62.725 135.9148
16172.050174 62.753 169.8142
16289.239516 62.777 -155.2913
16407.278061 62.811 -120.9133
16526.171961 62.762 -87.1135
16645.927415 62.596 -53.4246
16766.550667 62.171 -20.2524
16888.048005 61.457 14.0596
17010.425762 60.547 52.2002
17133.690320 59.791 93.6272
17257.848103 59.334 135.4338
17382.905584 58.968 175.3606
17508.869284 58.659 -142.9707
17635.745768 58.646 -99.0920
17763.541652 58.775 -59.8247
17892.263597 58.589 -23.6658
18021.918315 58.049 16.1731
18152.512564 57.570 58.5525
18284.053153 57.083 97.6201
18416.546939 56.152 136.6306
18550.000830 55.089 -176.2339
18684.421783 54.667 -122.8413
18819.816805 54.682 -79.6853
18956.192956 54.384 -41.5308
19093.557344 53.684 -0.1211
19231.917131 53.034 43.9312
19371.279531 52.348 82.7180
19511.651807 51.116 120.3379
19653.041280 49.355 163.9143
19795.455318 47.736 -147.0146
19938.901348 46.891 -100.6611
