* Measurement data measured by REW V5.31
* Source: Scarlett 2i4 USB, MICROPHONE, R, volume: no control. Timing signal peak level -35.6 dBFS, measurement signal peak level -20.5 dBFS
* Format: 512k Log Swept Sine, 1 sweep at -18.0 dBFS using an acoustic timing reference
* Dated: Apr 9, 2024 1:57:19 PM
* REW Settings:
*  C-weighting compensation: Off
*  Target level: 75.0 dB
* Note: ; Delay -0.0567 ms (-19 mm, -0.77 in) using estimated IR delay relative to Acoustic reference played from SPEAKER L with no timing offset
* Measurement: p2_device_mic-to-mic
* Smoothing: 1/48 octave
* Frequency Step: 96 ppo
* Start Frequency: 15.140533 Hz
*
* Freq(Hz) SPL(dB) Phase(degrees)
15.140533 71.880 -103.9506
15.250248 71.996 -106.3514
15.360758 72.137 -108.7762
15.472068 72.282 -111.1947
15.584185 72.422 -113.6163
15.697114 72.558 -116.0516
15.810862 72.688 -118.4664
15.925434 72.809 -120.8687
16.040836 72.924 -123.2697
16.157075 73.031 -125.6357
16.274156 73.132 -127.9782
16.392085 73.227 -130.3020
16.510869 73.316 -132.5773
16.630513 73.399 -134.8196
16.751025 73.478 -137.0255
16.872410 73.552 -139.1710
16.994674 73.623 -141.2721
17.117825 73.692 -143.3204
17.241867 73.760 -145.3011
17.366809 73.828 -147.2248
17.492656 73.898 -149.0897
17.619415 73.971 -150.8865
17.747093 74.049 -152.6257
17.875695 74.135 -154.3227
18.005230 74.229 -155.9621
18.135703 74.334 -157.5760
18.267122 74.450 -159.1824
18.399493 74.577 -160.7695
18.532824 74.716 -162.3917
18.667120 74.866 -164.0384
18.802390 75.025 -165.7279
18.938640 75.191 -167.4932
19.075877 75.363 -169.3168
19.214108 75.536 -171.2147
19.353342 75.708 -173.1934
19.493584 75.878 -175.2321
19.634843 76.043 -177.3322
19.777125 76.201 -179.4879
19.920438 76.352 178.3369
20.064790 76.494 176.1250
20.210187 76.630 173.9152
20.356639 76.760 171.7065
20.504151 76.885 169.5035
20.652733 77.008 167.3228
20.802391 77.130 165.1501
20.953134 77.254 162.9830
21.104969 77.380 160.8188
21.257904 77.509 158.6285
21.411948 77.641 156.4149
21.567108 77.774 154.1508
21.723392 77.908 151.8271
21.880808 78.040 149.4425
22.039366 78.166 146.9780
22.199072 78.284 144.4541
22.359936 78.390 141.8639
22.521965 78.483 139.2281
22.685168 78.559 136.5686
22.849554 78.619 133.8931
23.015132 78.661 131.2510
23.181909 78.687 128.6371
23.349895 78.698 126.1138
23.519098 78.697 123.6689
23.689527 78.689 121.3570
23.861191 78.679 119.1617
24.034099 78.674 117.1096
24.208260 78.681 115.1726
24.383683 78.709 113.3363
24.560377 78.760 111.5467
24.738352 78.842 109.7562
24.917616 78.954 107.8794
25.098179 79.094 105.8645
25.280051 79.254 103.6215
25.463241 79.429 101.1169
25.647758 79.602 98.3076
25.833612 79.766 95.1796
26.020813 79.904 91.7651
26.209371 80.007 88.0677
26.399294 80.064 84.1696
26.590595 80.070 80.1190
26.783281 80.018 75.9724
26.977364 79.908 71.8571
27.172853 79.740 67.7761
27.369758 79.521 63.8869
27.568091 79.258 60.1673
27.767861 78.961 56.7152
27.969078 78.644 53.4767
28.171754 78.314 50.4706
28.375898 77.978 47.5729
28.581521 77.635 44.7589
28.788635 77.275 41.8998
28.997249 76.880 39.0100
29.207375 76.431 36.0472
29.419024 75.900 33.1751
29.632206 75.269 30.5200
29.846933 74.521 28.3546
30.063216 73.662 27.0679
30.281067 72.715 27.0147
30.500496 71.737 28.6924
30.721515 70.842 32.1177
30.944136 70.124 37.2240
31.168370 69.672 43.0143
31.394229 69.449 48.7322
31.621724 69.395 53.9430
31.850868 69.419 58.8558
32.081673 69.535 64.1024
32.314150 69.803 69.8393
32.548312 70.326 75.9482
32.784170 71.125 81.2484
33.021738 72.127 84.9014
33.261027 73.204 86.5246
33.502050 74.222 86.2319
33.744819 75.119 84.6833
33.989348 75.868 82.3593
34.235649 76.478 79.8024
34.483735 76.994 77.4749
34.733618 77.473 75.4987
34.985312 77.974 73.9132
35.238830 78.550 72.4700
35.494185 79.211 70.6640
35.751391 79.927 68.1685
36.010460 80.652 64.7839
36.271407 81.327 60.4274
36.534244 81.907 55.2889
36.798987 82.367 49.6279
37.065647 82.694 43.6658
37.334240 82.887 37.6340
37.604779 82.960 31.8229
37.877279 82.934 26.4181
38.151754 82.838 21.5161
38.428217 82.703 17.1671
38.706684 82.560 13.3518
38.987168 82.432 9.9574
39.269685 82.332 6.8171
39.554250 82.256 3.8051
39.840876 82.200 0.8456
40.129579 82.154 -2.0896
40.420375 82.117 -4.9945
40.713278 82.092 -7.8589
41.008303 82.084 -10.7080
41.305466 82.099 -13.6214
41.604782 82.133 -16.7062
41.906268 82.175 -20.0609
42.209938 82.205 -23.7403
42.515808 82.198 -27.7338
42.823895 82.133 -31.9559
43.134215 81.991 -36.2510
43.446783 81.766 -40.4036
43.761617 81.462 -44.1605
44.078731 81.104 -47.2672
44.398144 80.734 -49.5322
44.719871 80.412 -50.9176
45.043930 80.197 -51.6097
45.370337 80.130 -52.0070
45.699109 80.213 -52.5843
46.030264 80.414 -53.7169
46.363818 80.688 -55.5889
46.699789 80.992 -58.2223
47.038195 81.292 -61.5544
47.379053 81.566 -65.4926
47.722381 81.795 -69.9283
48.068197 81.966 -74.7269
48.416519 82.075 -79.7208
48.767365 82.126 -84.7271
49.120754 82.142 -89.5929
49.476703 82.151 -94.2562
49.835232 82.185 -98.7851
50.196358 82.264 -103.3581
50.560102 82.388 -108.1755
50.926481 82.543 -113.3594
51.295515 82.718 -118.9241
51.667224 82.912 -124.8473
52.041626 83.138 -131.1852
52.418741 83.404 -138.1411
52.798589 83.694 -146.0112
53.181189 83.961 -155.0348
53.566562 84.143 -165.2795
53.954727 84.171 -176.5995
54.345706 83.994 171.3433
54.739517 83.576 159.0248
55.136182 82.910 147.0106
55.535722 82.014 135.9030
55.938156 80.944 126.2573
56.343507 79.795 118.4846
56.751796 78.689 112.5979
57.163042 77.734 108.1489
57.577269 76.979 104.5610
57.994498 76.428 101.5353
58.414750 76.088 98.9933
58.838047 75.993 96.7428
59.264412 76.155 94.2544
59.693867 76.532 90.9428
60.126433 77.038 86.4774
60.562134 77.591 80.8871
61.000992 78.139 74.3607
61.443030 78.651 67.0768
61.888272 79.104 59.1916
62.336740 79.479 50.8699
62.788457 79.763 42.3091
63.243449 79.959 33.7665
63.701737 80.082 25.4492
64.163346 80.159 17.4637
64.628300 80.217 9.7999
65.096623 80.271 2.3165
65.568340 80.314 -5.1562
66.043475 80.319 -12.6981
66.522053 80.262 -20.2484
67.004100 80.129 -27.6033
67.489639 79.925 -34.5891
67.978697 79.673 -41.1253
68.471298 79.390 -47.2788
68.967470 79.081 -53.1704
69.467236 78.737 -58.8572
69.970625 78.352 -64.3242
70.477661 77.922 -69.5707
70.988371 77.438 -74.6458
71.502782 76.870 -79.5110
72.020920 76.186 -83.8128
72.542814 75.390 -86.8263
73.068489 74.569 -87.7020
73.597973 73.903 -86.0952
74.131294 73.587 -82.9553
74.668480 73.685 -80.0303
75.209559 74.092 -78.7004
75.754558 74.645 -79.3665
76.303507 75.203 -81.9233
76.856434 75.658 -86.0365
77.413367 75.937 -91.1591
77.974336 76.007 -96.5436
78.539371 75.892 -101.3212
79.108499 75.672 -104.8638
79.681752 75.461 -106.9744
80.259159 75.373 -107.8573
80.840750 75.524 -107.7036
81.426555 76.037 -107.0414
82.016606 76.943 -107.5911
82.610932 78.052 -111.4446
83.209565 79.081 -119.0667
83.812535 79.831 -129.5200
84.419876 80.224 -141.5413
85.031617 80.267 -154.1295
85.647791 79.995 -166.7678
86.268430 79.440 -179.2863
86.893567 78.611 168.2917
87.523233 77.491 155.8081
88.157463 76.019 142.9801
88.796288 74.086 129.5049
89.439743 71.619 115.2234
90.087860 69.270 100.1907
90.740674 69.558 -96.8361
91.398218 72.250 -114.1759
92.060527 74.797 -133.1498
92.727636 76.493 -153.2163
93.399578 77.310 -173.5007
94.076390 77.317 167.3002
94.758106 76.638 150.7712
95.444763 75.485 138.3120
96.136395 74.152 130.1138
96.833039 72.894 124.6533
97.534731 71.790 120.2756
98.241508 70.804 116.5441
98.953406 69.906 113.5630
99.670463 69.102 111.4087
100.392717 68.436 110.1019
101.120204 67.967 109.3064
101.852962 67.719 108.2716
102.591031 67.649 106.1882
103.334448 67.653 102.4819
104.083252 67.602 97.0715
104.837482 67.386 90.3606
105.597178 66.937 82.8999
106.362378 66.202 75.2509
107.133124 65.138 68.2546
107.909455 63.743 63.4451
108.691411 62.150 63.1753
109.479034 60.784 69.6138
110.272364 60.299 80.5288
111.071443 60.850 88.2896
111.876313 61.854 89.5198
112.687014 62.803 86.3013
113.503591 63.553 81.2141
114.326085 64.144 75.3816
115.154539 64.611 68.7715
115.988996 64.942 61.3855
116.829500 65.134 53.6825
117.676095 65.209 45.9462
118.528824 65.170 38.0668
119.387733 64.978 30.1077
120.252866 64.606 22.7303
121.124268 64.093 16.7959
122.001984 63.543 12.6268
122.886061 63.043 9.5854
123.776544 62.590 6.8964
124.673480 62.150 5.0054
125.576915 61.859 5.8293
126.486897 62.142 10.7073
127.403473 63.286 16.0063
128.326691 64.928 15.7522
129.256599 66.518 9.3170
130.193246 67.774 -0.9800
131.136680 68.614 -13.3027
132.086950 69.022 -26.4556
133.044107 69.020 -39.3341
134.008199 68.679 -51.0353
134.979278 68.089 -61.2024
135.957393 67.324 -69.7428
136.942597 66.454 -76.4564
137.934939 65.545 -81.6855
138.934473 64.574 -86.4545
139.941249 63.426 -89.9198
140.955321 62.236 -87.4573
141.976742 61.733 -76.0461
143.005564 62.429 -65.7129
144.041841 63.651 -65.0657
145.085627 64.638 -70.8329
146.136978 65.178 -78.3524
147.195946 65.334 -85.4371
148.262589 65.197 -91.4004
149.336961 64.865 -95.4114
150.419118 64.543 -96.2419
151.509117 64.624 -92.9648
152.607014 65.484 -87.6704
153.712868 66.962 -86.3547
154.826735 68.519 -91.7312
155.948673 69.785 -102.0422
157.078741 70.611 -115.4471
158.216999 70.928 -130.6487
159.363504 70.704 -146.5782
160.518318 69.895 -162.4724
161.681500 68.417 -176.9351
162.853110 66.237 173.8358
164.033211 63.645 177.2761
165.221864 61.648 -165.1975
166.419129 61.106 -154.5197
167.625071 61.249 -154.1129
168.839751 61.238 -156.1277
170.063234 61.055 -154.9812
171.295582 61.055 -150.8680
172.536860 61.280 -149.1276
173.787134 61.397 -150.9323
175.046467 61.231 -152.5090
176.314926 61.162 -148.1652
177.592576 62.034 -135.7726
178.879485 63.933 -126.5869
180.175720 66.000 -128.6644
181.481347 67.676 -137.8053
182.796436 68.859 -149.9446
184.121054 69.600 -163.2948
185.455271 69.969 -177.2858
186.799157 69.991 167.9094
188.152780 69.616 152.0571
189.516213 68.775 135.5880
190.889526 67.446 118.9717
192.272790 65.651 101.6774
193.666078 63.474 81.5039
195.069462 61.313 52.4689
196.483016 60.454 3.6415
197.906813 61.801 -44.9910
199.340927 64.155 -73.7837
200.785433 66.554 -92.4225
202.240407 68.759 -107.3901
203.705925 70.649 -122.4554
205.182062 72.086 -139.1689
206.668896 72.956 -157.2179
208.166504 73.218 -175.1625
209.674964 72.929 168.7301
211.194355 72.220 155.4664
212.724757 71.204 144.4336
214.266248 69.869 135.4497
215.818909 68.344 133.4092
217.382822 67.489 144.8135
218.958068 68.095 155.4619
220.544728 69.246 151.8740
222.142886 69.941 141.1099
223.752625 69.974 129.8544
225.374029 69.509 121.2112
227.007182 68.834 116.2646
228.652170 68.223 113.6141
230.309077 67.734 110.7583
231.977992 67.275 107.8258
233.659000 66.852 106.4532
235.352190 66.565 105.9139
237.057649 66.334 103.5284
238.775466 65.933 99.6851
240.505731 65.293 97.7197
242.248535 64.783 102.8149
244.003968 64.945 110.9166
245.772121 65.595 112.7517
247.553087 66.255 110.6965
249.346959 66.952 110.1504
251.153830 67.899 109.8561
252.973794 69.010 106.4946
254.806946 69.963 98.3707
256.653383 70.402 85.9493
258.513199 70.161 73.0374
260.386492 69.347 63.6074
262.273360 68.368 61.2119
264.173901 67.897 64.2065
266.088214 68.215 65.3486
268.016399 68.900 60.8801
269.958556 69.396 50.7343
271.914787 69.470 38.5415
273.885194 69.088 24.4187
275.869879 67.994 7.3910
277.868945 65.915 -5.2673
279.882498 63.277 8.6946
281.910642 61.757 42.0759
283.953483 61.895 44.7722
286.011127 62.310 40.9948
288.083682 62.537 38.6207
290.171255 62.709 37.6298
292.273955 63.205 40.1099
294.391893 64.354 43.7574
296.525178 65.842 41.1809
298.673921 67.016 30.1360
300.838236 67.460 14.2687
303.018234 67.117 -1.1656
305.214029 66.197 -13.3314
307.425735 64.862 -24.0312
309.653469 63.074 -30.9467
311.897346 61.148 -26.4163
314.157482 60.246 -12.3591
316.433997 61.388 1.0720
318.727008 63.817 9.7688
321.036636 66.002 1.0923
323.362999 67.015 -20.6190
325.706221 66.706 -41.8986
328.066422 65.663 -52.4385
330.443727 64.732 -59.0402
332.838258 63.937 -68.7285
335.250142 63.241 -71.8479
337.679502 63.345 -68.8008
340.126467 64.332 -70.9319
342.591164 65.497 -79.8711
345.073721 66.401 -92.5759
347.574267 67.140 -104.3103
350.092934 67.965 -115.5342
352.629851 68.891 -128.1489
355.185153 69.800 -142.6260
357.758971 70.487 -159.8647
360.351440 70.709 -179.2822
362.962695 70.440 163.0432
365.592872 70.103 151.0996
368.242109 70.094 139.3398
370.910543 70.018 121.9646
373.598313 69.313 102.8308
376.305561 67.866 88.0198
379.032426 66.012 81.4033
381.779051 64.271 78.1841
384.545580 63.004 76.9016
387.332155 63.162 93.0684
390.138924 65.144 110.1799
392.966031 67.296 100.7944
395.813625 68.720 81.9233
398.681854 69.287 59.7561
401.570867 68.942 37.7344
404.480815 68.165 32.6401
407.411850 68.153 37.1292
410.364124 68.585 17.7688
413.337791 68.438 -10.6670
416.333007 67.606 -44.2551
419.349928 66.610 -94.1289
422.388711 66.283 102.7673
425.449513 66.552 49.4214
428.532496 66.610 16.0771
431.637819 66.437 -6.7290
434.765644 66.420 -25.3823
437.916136 66.604 -43.9424
441.089456 66.860 -64.4036
444.285772 66.879 -88.4856
447.505250 66.377 -113.6206
450.748058 65.666 -131.5884
454.014364 65.727 -143.9031
457.304339 66.335 -165.7461
460.618155 66.457 166.5759
463.955984 65.843 140.7336
467.318000 64.714 118.5835
470.704379 63.282 100.0881
474.115297 61.681 84.2009
477.550932 60.042 70.3252
481.011463 59.016 66.6487
484.497070 60.109 110.0400
488.007936 62.587 107.1111
491.544242 64.363 78.9138
495.106175 64.516 41.8594
498.693918 62.967 5.1816
502.307660 60.253 -21.2900
505.947588 58.047 46.9434
509.613893 58.938 27.8149
513.306765 61.748 -35.5820
517.026398 64.306 -115.2949
520.772984 65.744 -176.1609
524.546720 65.860 140.0476
528.347802 65.394 116.2852
532.176428 65.503 101.5159
536.032797 65.814 80.4780
539.917112 65.637 59.3022
543.829574 65.161 42.5095
547.770387 65.172 32.2366
551.739757 66.201 24.9307
555.737891 67.257 -0.2083
559.764997 67.480 -37.1021
563.821285 67.160 -80.4839
567.906966 66.630 -133.1084
572.022254 66.187 170.6121
576.167363 66.002 119.6531
580.342509 65.894 76.6182
584.547910 65.606 37.4148
588.783786 64.923 0.8718
593.050356 64.332 -30.6602
597.347843 64.461 -66.2302
601.676472 64.725 -110.2847
606.036467 64.704 -153.9219
610.428057 64.302 166.4890
614.851471 63.343 133.1912
619.306938 62.267 120.6150
623.794691 62.826 133.0374
628.314965 64.296 116.0193
632.867994 64.574 84.1917
637.454017 63.107 56.2644
642.073271 60.417 50.4834
646.725999 57.840 57.5935
651.412442 57.032 55.6897
656.132845 59.478 130.9351
660.887454 62.816 157.3464
665.676517 64.898 127.5173
670.500283 65.406 95.4958
675.359005 64.755 72.1194
680.252935 63.595 52.6968
685.182328 61.729 30.2764
690.147441 59.290 16.3384
695.148534 59.118 152.7573
700.185867 61.929 146.5288
705.259702 64.679 129.2764
710.370305 66.335 107.6340
715.517941 66.991 87.6343
720.702879 67.064 72.2764
725.925389 66.802 58.5127
731.185744 66.064 45.7454
736.484217 65.067 39.9741
741.821085 64.314 36.0703
747.196627 63.402 25.7808
752.611121 61.777 24.2256
758.064852 60.741 47.2258
763.558102 61.979 70.8181
769.091159 64.103 71.0813
774.664311 65.802 61.7725
780.277848 66.851 49.2837
785.932063 67.198 35.4316
791.627250 67.001 24.4531
797.363708 67.045 23.3789
803.141734 68.303 29.5947
808.961630 69.962 19.6084
814.823699 70.662 -3.4731
820.728248 70.241 -26.9844
826.675583 69.198 -48.7158
832.666015 67.850 -73.2412
838.699856 66.393 -105.6943
844.777421 65.073 -158.7231
850.899026 64.121 127.5088
857.064992 63.893 84.7490
863.275638 65.025 68.1113
869.531289 66.488 44.7837
875.832271 67.360 20.1250
882.178913 67.661 -4.0674
888.571545 66.987 -31.3408
895.010500 64.978 -53.8823
901.496116 62.220 -71.3960
908.028728 59.588 -102.8564
914.608678 58.798 137.8428
921.236310 61.208 94.0029
927.911968 64.219 72.6147
934.636001 66.496 52.8350
941.408758 67.542 28.5273
948.230594 67.425 7.8843
955.101864 66.971 -4.3779
962.022926 66.905 -13.1460
968.994141 67.043 -26.5249
976.015872 66.556 -44.4907
983.088485 65.346 -60.0742
990.212349 63.701 -76.5684
997.387836 62.042 -46.7964
1004.615320 61.867 -9.9351
1011.895176 62.848 -22.1084
1019.227786 63.335 -41.0923
1026.613531 62.706 -55.8555
1034.052795 61.822 -58.7588
1041.545968 61.217 -69.7163
1049.093440 59.916 -85.4126
1056.695603 57.916 -77.9697
1064.352855 56.851 -56.1924
1072.065595 56.718 -63.9614
1079.834224 56.443 -77.4678
1087.659148 56.537 -68.5542
1095.540774 58.003 -12.7178
1103.479514 59.951 -27.7686
1111.475782 61.325 -51.3726
1119.529994 61.801 -77.0503
1127.642569 62.009 -98.5913
1135.813932 62.491 -124.6221
1144.044508 62.132 -163.3813
1152.334726 60.328 158.9634
1160.685019 58.480 133.8262
1169.095821 59.041 113.2480
1177.567571 61.352 93.5088
1186.100711 63.332 65.9277
1194.695686 64.044 33.6958
1203.352943 63.718 12.1860
1212.072935 63.771 10.2197
1220.856115 64.400 -4.6611
1229.702942 64.167 -27.0771
1238.613876 63.206 -40.5762
1247.589383 62.178 -54.4727
1256.629930 60.780 -69.3818
1265.735988 59.049 -77.5220
1274.908033 58.034 -63.6880
1284.146542 58.579 -55.7109
1293.451997 59.472 -69.6763
1302.824884 59.740 -91.0864
1312.265690 59.179 -110.7773
1321.774908 58.369 -129.2998
1331.353034 57.052 -159.3760
1341.000567 55.228 169.7266
1350.718010 55.224 122.9380
1360.505869 56.910 59.4839
1370.364656 58.560 1.5234
1380.294883 59.698 -63.5078
1390.297068 60.444 164.6504
1400.371734 61.208 79.9287
1410.519405 61.862 35.2075
1420.740610 62.079 3.9966
1431.035882 62.464 -15.1279
1441.405758 62.593 -40.7876
1451.850778 61.362 -63.5366
1462.371488 59.707 -25.8037
1472.968434 59.041 -24.5781
1483.642171 58.922 -35.5674
1494.393253 59.489 -38.6938
1505.222243 60.612 -45.5591
1516.129704 61.433 -59.5459
1527.116205 61.239 -77.5039
1538.182318 60.536 -87.4888
1549.328621 60.589 -82.9268
1560.555695 62.082 -80.3506
1571.864125 63.752 -100.2891
1583.254500 64.415 -132.1685
1594.727415 63.498 -165.6245
1606.283467 61.429 169.3716
1617.923260 60.213 127.1001
1629.647399 60.260 52.9565
1641.456495 60.968 -8.7070
1653.351166 61.567 -53.1260
1665.332030 61.314 -87.4727
1677.399712 60.442 -116.2236
1689.554842 59.055 -133.7729
1701.798053 58.075 -148.5015
1714.129983 56.957 172.2461
1726.551276 56.032 -3.3345
1739.062578 56.895 -43.1558
1751.664542 58.281 -67.6665
1764.357825 59.880 -79.1606
1777.143090 61.658 -94.7075
1790.021001 62.681 -122.3848
1802.992231 62.755 -153.3159
1816.057456 61.902 177.4141
1829.217357 60.296 -142.8105
1842.472620 59.049 -135.3228
1855.823936 59.040 -152.3540
1869.272001 59.608 -172.7627
1882.817517 60.468 156.8638
1896.461189 61.586 109.0005
1910.203728 62.562 36.9209
1924.045852 62.887 -43.6323
1937.988281 61.903 -104.5659
1952.031743 59.727 -141.8262
1966.176970 58.291 -156.7119
1980.424699 59.458 -175.1343
1994.775672 61.068 142.9194
2009.230639 61.510 75.6050
2023.790353 61.054 0.3301
2038.455572 61.783 -49.8413
2053.227061 63.288 -91.4233
2068.105591 64.211 -128.7646
2083.091937 63.963 -165.9165
2098.186879 62.492 159.8916
2113.391207 60.426 126.2178
2128.705710 58.777 81.5166
2144.131189 58.627 -113.8472
2159.668448 58.871 -148.8906
2175.318296 58.396 -169.2095
2191.081549 57.280 174.8037
2206.959029 55.861 168.7368
2222.951564 54.556 175.9517
2239.059987 54.039 -169.6548
2255.285139 53.879 -166.7217
2271.627865 54.634 -147.6196
2288.089017 56.457 -145.0522
2304.669453 58.019 -154.0391
2321.370038 58.259 -173.7866
2338.191642 57.878 179.7056
2355.135142 58.494 173.2974
2372.201423 59.700 155.6270
2389.391372 60.508 125.9102
2406.705887 60.754 81.3496
2424.145870 60.804 0.9717
2441.712230 61.523 -91.3608
2459.405883 62.941 -143.9360
2477.227752 63.833 171.7295
2495.178766 64.174 126.6362
2513.259860 63.909 71.7144
2531.471977 62.994 1.3730
2549.816066 62.435 -66.4404
2568.293084 62.717 -115.6094
2586.903995 62.897 -156.7422
2605.649767 62.094 167.9121
2624.531380 60.702 149.9062
2643.549816 60.586 175.6162
2662.706068 61.494 -175.3643
2682.001134 61.320 154.6455
2701.436019 59.817 128.9023
2721.011738 57.751 122.7637
2740.729311 56.589 169.7031
2760.589765 57.499 170.5938
2780.594137 59.130 140.0156
2800.743468 60.562 80.8438
2821.038810 61.537 -74.4111
2841.481220 62.687 -124.3145
2862.071764 64.130 -158.0557
2882.811516 64.775 168.3164
2903.701557 63.828 136.7070
2924.742975 61.859 114.5254
2945.936868 60.309 135.9678
2967.284341 60.469 156.7920
2988.786507 60.645 136.1963
3010.444486 60.131 121.4121
3032.259408 59.284 109.0020
3054.232409 58.332 101.7480
3076.364636 57.871 176.6738
3098.657243 57.555 162.9971
3121.111390 57.834 172.7725
3143.728250 58.990 171.3369
3166.509001 59.886 147.8896
3189.454830 59.690 119.8594
3212.566935 58.335 99.5195
3235.846519 57.010 113.7295
3259.294797 56.989 126.2861
3282.912991 57.072 105.1455
3306.702331 57.622 63.5811
3330.664060 59.499 -47.6699
3354.799424 60.954 -110.9062
3379.109684 61.320 -154.7939
3403.596106 60.642 170.3682
3428.259966 59.092 154.9648
3453.102551 58.177 173.7734
3478.125156 58.588 171.7529
3503.329084 59.075 150.8164
3528.715651 59.207 154.1221
3554.286179 59.145 -155.7930
3580.042002 58.712 -172.8701
3605.984462 58.679 -173.0488
3632.114912 59.501 -169.1689
3658.434714 60.307 -177.8613
3684.945240 60.633 170.6973
3711.647872 60.777 165.1934
3738.544003 60.852 154.4600
3765.635034 60.928 155.2236
3792.922377 61.261 144.9824
3820.407456 60.842 124.4141
3848.091704 60.045 109.7891
3875.976563 59.859 111.5801
3904.063486 60.072 169.4453
3932.353940 59.395 177.4102
3960.849397 58.076 162.5820
3989.551345 57.245 160.2607
4018.461279 57.474 168.7441
4047.580706 57.819 149.3350
4076.911144 57.712 118.7656
4106.454123 57.642 104.0615
4136.211182 58.353 -113.1807
4166.183873 59.103 -132.4785
4196.373759 59.169 -156.3359
4226.782413 58.820 -166.5586
4257.411421 58.848 -155.8877
4288.262379 59.308 -161.7363
4319.336896 59.431 -175.4141
4350.636592 59.577 -175.1064
4382.163098 60.106 -162.6328
4413.918058 60.541 -152.9082
4445.903128 61.005 -155.2803
4478.119974 60.857 -174.3594
4510.570278 60.382 -174.9580
4543.255729 60.739 -172.9648
4576.178033 60.889 170.0166
4609.338906 60.452 159.2344
4642.740075 59.671 172.4678
4676.383284 59.116 -154.1719
4710.270285 59.510 -155.5830
4744.402845 59.916 -169.2803
4778.782744 59.522 173.1113
4813.411774 58.790 164.1836
4848.291739 58.677 167.5576
4883.424460 58.819 171.3086
4918.811767 58.780 -167.1172
4954.455504 59.021 -157.7998
4990.357531 58.936 -166.7334
5026.519719 58.531 -172.8779
5062.943953 58.593 -171.5566
5099.632132 59.060 -176.0137
5136.586169 59.321 -173.5938
5173.807989 59.286 -158.5693
5211.299535 59.321 -136.0703
5249.062760 59.903 -145.4521
5287.099632 60.014 -161.9922
5325.412136 59.505 -166.5146
5364.002267 58.943 -166.2529
5402.872039 58.771 -153.0049
5442.023477 60.153 -134.4375
5481.458622 61.917 -139.5361
5521.179531 62.453 -155.5576
5561.188274 61.933 -164.9941
5601.486936 61.261 -163.3350
5642.077620 61.131 -160.3438
5682.962440 61.412 -160.2168
5724.143529 62.261 -156.1797
5765.623032 63.528 -159.8926
5807.403113 63.894 -175.7812
5849.485950 63.122 176.4238
5891.873737 62.443 176.4746
5934.568683 62.239 170.5371
5977.573014 62.227 170.8945
6020.888972 62.370 171.4609
6064.518815 61.995 161.3555
6108.464819 61.160 158.4756
6152.729273 60.660 160.8926
6197.314485 60.098 155.8516
6242.222781 59.688 168.6777
6287.456500 60.067 -174.7910
6333.018002 60.302 177.7188
6378.909661 60.172 172.7236
6425.133870 60.100 168.1836
6471.693038 60.040 163.0234
6518.589594 60.322 173.7520
6565.825981 60.993 175.7402
6613.404663 61.212 166.7598
6661.328119 61.370 162.6484
6709.598849 61.553 151.0762
6758.219368 60.996 143.8223
6807.192211 60.270 170.5127
6856.519932 60.260 177.0293
6906.205102 60.323 175.7803
6956.250311 60.255 174.1621
7006.658169 59.942 171.8740
7057.431302 59.773 178.3096
7108.572358 59.722 174.6729
7160.084004 59.582 172.5127
7211.968924 59.738 167.7383
7264.229824 59.502 157.0186
7316.869428 58.560 160.0908
7369.890480 57.886 169.0938
7423.295744 58.150 172.9482
7477.088005 58.736 168.9951
7531.270067 58.664 158.8447
7585.844755 58.208 168.3545
7640.814913 58.370 176.6689
7696.183407 59.157 -170.5859
7751.953125 59.824 -177.8018
7808.126973 59.130 165.4014
7864.707880 57.416 164.7910
7921.698795 56.522 171.1094
7979.102690 57.052 170.8203
8036.922557 57.570 153.3486
8095.161411 57.368 167.1631
8153.822288 57.250 -124.4883
8212.908245 57.546 -121.4600
8272.422364 57.765 -132.5684
8332.367746 58.081 -134.8496
8392.747518 59.320 -132.2422
8453.564826 60.918 -131.9043
8514.822842 61.966 -143.6797
8576.524758 61.630 -157.3213
8638.673792 60.736 -152.4463
8701.273183 60.108 -152.1846
8764.326195 59.690 -158.0674
8827.836116 59.262 -160.2500
8891.806255 59.442 -145.4307
8956.239949 60.080 -141.9189
9021.140556 60.706 -138.0586
9086.511459 60.962 -140.0000
9152.356067 61.203 -133.4297
9218.677811 61.945 -131.4980
9285.480151 62.715 -138.5947
9352.766568 62.665 -151.1309
9420.540570 62.224 -152.2686
9488.805690 62.605 -147.7803
9557.565488 63.155 -153.9873
9626.823547 62.873 -162.4893
9696.583479 62.391 -161.8994
9766.848920 62.461 -161.1846
9837.623533 62.723 -167.7490
9908.911009 62.284 -178.8145
9980.715063 61.442 179.0869
10053.039438 61.325 -171.5029
10125.887906 61.443 -176.6689
10199.264264 60.873 -175.6670
10273.172337 60.660 -156.7178
10347.615979 61.236 -151.7324
10422.599070 61.669 -158.9287
10498.125519 61.999 -159.5146
10574.199264 62.718 -156.8359
10650.824271 63.313 -166.2471
10728.004534 63.123 -178.7412
10805.744077 62.615 176.2598
10884.046953 62.392 173.1611
10962.917244 61.878 161.6709
11042.359062 60.876 158.8281
11122.376547 60.485 174.9395
11202.973873 60.603 174.1514
11284.155240 60.425 171.4961
11365.924880 60.324 -175.7842
11448.287057 60.392 178.6787
11531.246064 60.158 171.6445
11614.806227 60.053 171.5947
11698.971901 59.942 162.9902
11783.747474 59.370 150.2354
11869.137365 58.469 148.5645
11955.146027 57.815 154.3164
12041.777944 57.327 151.7119
12129.037631 56.936 178.4971
12216.929637 56.722 -175.5225
12305.458545 56.514 178.3691
12394.628971 56.750 179.6289
12484.445562 57.094 170.3018
12574.913000 56.478 157.0674
12666.036004 55.232 162.7178
12757.819322 54.356 165.0498
12850.267740 53.454 165.7314
12943.386077 53.084 179.0420
13037.179188 53.432 178.2090
13131.651963 53.782 177.2061
13226.809326 54.095 -177.3047
13322.656239 54.245 179.4141
13419.197698 54.107 173.0254
13516.438736 53.817 168.8232
13614.384423 53.088 161.3018
13713.039865 52.068 162.0225
13812.410204 51.418 168.4434
13912.500622 51.100 172.6230
14013.316337 51.314 -173.7266
14114.862604 51.729 -175.2803
14217.144717 51.855 179.1309
14320.168008 51.939 175.7471
14423.937848 52.026 168.8994
14528.459648 51.870 163.9014
14633.738856 51.513 158.5010
14739.780960 50.999 153.2363
14846.591489 50.719 150.1816
14954.176011 50.409 142.4492
15062.540135 49.799 138.2578
15171.689509 49.305 134.5947
15281.629826 48.880 128.8340
15392.366815 48.724 123.6387
15503.906250 48.464 111.8848
15616.253946 47.708 99.6885
15729.415759 46.619 84.5508
15843.397590 44.990 67.6973
15958.205380 43.315 63.2402
16073.845114 42.001 63.8379
16190.322822 40.695 91.6562
16307.644575 39.436 88.3730
16425.816490 38.759 76.0293
16544.844728 38.453 54.2129
16664.735493 37.409 11.7529
16785.495036 35.882 -68.6553
16907.129652 34.754 -129.0859
17029.645683 34.119 -162.2734
17153.049516 33.492 178.2070
17277.347583 32.766 157.4297
17402.546366 31.820 148.7979
17528.652391 31.070 149.9941
17655.672232 30.205 153.0117
17783.612511 29.299 144.9805
17912.479898 28.207 134.7324
18042.281111 26.827 124.6416
18173.022918 24.968 115.2920
18304.712133 22.993 109.1123
18437.355623 20.950 103.9785
18570.960302 18.830 101.0967
18705.533136 16.687 100.4248
18841.081140 14.854 97.3242
18977.611380 13.067 89.0664
19115.130975 10.936 80.2627
19253.647094 8.371 73.0811
19393.166958 5.785 66.7080
19533.697840 3.545 58.6260
19675.247067 1.770 54.5771
19817.822018 0.753 57.4219
19961.430125 0.572 63.4639
