* Measurement data measured by REW V5.31
* Source: Scarlett 2i4 USB, MICROPHONE, R, volume: no control. Timing signal peak level -29.7 dBFS, measurement signal peak level -25.8 dBFS
* Format: 512k Log Swept Sine, 1 sweep at -18.0 dBFS using an acoustic timing reference
* Dated: Apr 16, 2024 9:48:47 AM
* REW Settings:
*  C-weighting compensation: Off
*  Target level: 75.0 dB
* Note: ; Delay -0.0130 ms (-4.5 mm, -0.18 in) using estimated IR delay relative to Acoustic reference played from SPEAKER L with no timing offset
* Measurement: ottoman-p1-l
* Smoothing: 1/48 octave
* Frequency Step: 96 ppo
* Start Frequency: 10.093689 Hz
*
* Freq(Hz) SPL(dB) Phase(degrees)
10.093689 18.982 66.6497
10.166832 18.938 59.9225
10.240505 18.885 52.2743
10.314712 18.832 44.0821
10.389457 18.786 35.7025
10.464743 18.781 27.2293
10.540575 18.839 17.8941
10.616956 18.941 8.0754
10.693891 19.077 -1.6054
10.771383 19.245 -10.7047
10.849437 19.459 -19.8841
10.928057 19.711 -29.3348
11.007246 19.966 -38.4356
11.087009 20.193 -46.7347
11.167350 20.382 -54.5732
11.248273 20.548 -62.7771
11.329783 20.666 -70.8530
11.411883 20.705 -78.3077
11.494578 20.653 -85.2071
11.577873 20.523 -92.6928
11.661771 20.288 -100.4439
11.746277 19.900 -107.8880
11.831395 19.314 -114.9226
11.917130 18.525 -123.1116
12.003487 17.599 -132.5242
12.090469 16.604 -142.7677
12.178081 15.485 -154.4833
12.266329 14.189 -172.7534
12.355216 13.137 157.4250
12.444747 12.972 119.1984
12.534926 14.106 85.6360
12.625760 16.113 63.2980
12.717251 18.274 49.3121
12.809406 20.103 39.2597
12.902228 21.644 30.4231
12.995723 23.016 22.7220
13.089895 24.228 16.1481
13.184750 25.265 10.1941
13.280292 26.129 4.2148
13.376526 26.855 -1.3604
13.473458 27.478 -6.2811
13.571093 27.997 -11.1207
13.669434 28.409 -15.9028
13.768489 28.731 -20.2245
13.868261 28.971 -24.0352
13.968756 29.123 -27.7926
14.069979 29.200 -31.2109
14.171936 29.212 -33.9667
14.274632 29.153 -36.3148
14.378072 29.043 -38.2369
14.482261 28.912 -39.5082
14.587206 28.754 -40.0044
14.692910 28.595 -39.8330
14.799381 28.488 -39.1144
14.906624 28.460 -37.7490
15.014643 28.508 -35.7919
15.123446 28.651 -33.7596
15.233036 28.913 -31.8688
15.343421 29.276 -30.0356
15.454606 29.694 -28.6649
15.566596 30.142 -27.9199
15.679398 30.620 -27.6125
15.793018 31.087 -27.7490
15.907460 31.518 -28.3500
16.022732 31.917 -29.3231
16.138840 32.273 -30.4851
16.255788 32.577 -31.8286
16.373585 32.833 -33.3542
16.492234 33.043 -34.8459
16.611744 33.207 -36.3281
16.732119 33.327 -37.8018
16.853367 33.413 -39.0945
16.975494 33.464 -40.2519
17.098505 33.488 -41.2473
17.222408 33.497 -41.9816
17.347209 33.490 -42.4828
17.472914 33.482 -42.7371
17.599530 33.482 -42.7056
17.727063 33.495 -42.4033
17.855521 33.540 -41.8998
17.984909 33.621 -41.1592
18.115235 33.746 -40.2908
18.246506 33.927 -39.4341
18.378727 34.162 -38.5504
18.511907 34.444 -37.8785
18.646052 34.773 -37.4440
18.781169 35.134 -37.2748
18.917265 35.507 -37.5131
19.054347 35.887 -38.0839
19.192423 36.252 -38.9600
19.331499 36.591 -40.1768
19.471583 36.897 -41.5912
19.612682 37.157 -43.1053
19.754804 37.372 -44.7461
19.897956 37.544 -46.2337
20.042144 37.672 -47.6299
20.187378 37.776 -48.7719
20.333664 37.864 -49.5376
20.481010 37.960 -49.9990
20.629424 38.094 -50.1021
20.778913 38.276 -49.9030
20.929486 38.531 -49.7070
21.081150 38.861 -49.4636
21.233912 39.247 -49.5801
21.387782 39.682 -50.0554
21.542767 40.130 -50.9725
21.698874 40.565 -52.4175
21.856113 40.967 -54.1910
22.014492 41.312 -56.2846
22.174018 41.594 -58.5343
22.334700 41.805 -60.7112
22.496546 41.951 -62.8118
22.659566 42.047 -64.4835
22.823766 42.108 -65.7994
22.989157 42.172 -66.5399
23.155745 42.261 -66.7733
23.323542 42.417 -66.6492
23.492554 42.650 -66.2311
23.662790 42.965 -65.9498
23.834261 43.348 -65.8051
24.006973 43.760 -66.0858
24.180938 44.182 -66.6799
24.356163 44.577 -67.5220
24.532658 44.944 -68.4772
24.710431 45.279 -69.2635
24.889493 45.609 -69.8369
25.069853 45.966 -69.9591
25.251519 46.394 -69.8615
25.434502 46.931 -69.5334
25.618811 47.582 -69.5914
25.804456 48.343 -70.0862
25.991445 49.159 -71.6089
26.179790 49.995 -73.9890
26.369500 50.787 -77.4313
26.560584 51.507 -81.6376
26.753053 52.120 -86.5759
26.946917 52.611 -91.8887
27.142185 52.968 -97.6011
27.338869 53.186 -103.2112
27.536977 53.264 -108.8292
27.736522 53.213 -113.9027
27.937512 53.048 -118.4508
28.139959 52.797 -122.0679
28.343872 52.519 -124.6792
28.549264 52.267 -126.1144
28.756143 52.129 -126.6428
28.964522 52.146 -126.6453
29.174411 52.340 -126.6350
29.385821 52.659 -127.3184
29.598763 53.046 -128.7926
29.813248 53.421 -131.2502
30.029287 53.730 -134.3601
30.246891 53.941 -138.0211
30.466073 54.035 -141.8000
30.686842 54.015 -145.4465
30.909212 53.891 -148.7584
31.133193 53.696 -151.3652
31.358797 53.471 -153.2163
31.586035 53.262 -154.1765
31.814921 53.130 -154.4106
32.045465 53.107 -154.2108
32.277680 53.209 -153.8697
32.511577 53.419 -153.8506
32.747169 53.698 -154.3395
32.984469 54.008 -155.4016
33.223488 54.310 -157.0294
33.464239 54.579 -159.0571
33.706735 54.802 -161.3473
33.950987 54.976 -163.7664
34.197010 55.106 -166.1357
34.444816 55.207 -168.3760
34.694417 55.295 -170.4528
34.945827 55.388 -172.3625
35.199059 55.501 -174.2151
35.454126 55.635 -176.1426
35.711041 55.782 -178.2530
35.969818 55.925 179.3539
36.230470 56.039 176.6628
36.493011 56.101 173.7653
36.757455 56.099 170.7772
37.023814 56.025 167.8401
37.292104 55.882 165.1307
37.562338 55.683 162.7906
37.834530 55.443 160.8921
38.108695 55.177 159.4852
38.384846 54.901 158.5984
38.662999 54.626 158.2505
38.943167 54.367 158.4641
39.225365 54.143 159.2333
39.509608 53.974 160.4814
39.795911 53.867 162.0740
40.084289 53.817 163.8957
40.374756 53.805 165.9870
40.667328 53.833 168.7132
40.962020 53.963 172.6868
41.258848 54.366 178.1848
41.557827 55.195 -175.6322
41.858972 56.456 -170.7003
42.162299 57.980 -168.6608
42.467824 59.542 -169.8768
42.775564 60.975 -173.8168
43.085533 62.200 -179.7106
43.397749 63.189 173.1443
43.712227 63.945 165.3204
44.028983 64.486 157.2559
44.348036 64.837 149.2688
44.669400 65.030 141.5785
44.993093 65.095 134.3171
45.319131 65.061 127.5430
45.647532 64.950 121.2668
45.978313 64.776 115.4897
46.311491 64.552 110.2363
46.647083 64.290 105.5615
46.985107 64.015 101.5162
47.325581 63.756 98.0836
47.668521 63.542 95.1323
48.013947 63.385 92.4465
48.361876 63.278 89.8370
48.712326 63.205 87.2518
49.065315 63.156 84.7841
49.420863 63.149 82.5541
49.778987 63.220 80.5400
50.139706 63.399 78.4973
50.503039 63.687 76.0681
50.869005 64.059 72.9889
51.237623 64.482 69.1961
51.608912 64.949 64.7261
51.982891 65.466 59.5117
52.359580 66.037 53.2711
52.739000 66.628 45.6085
53.121168 67.173 36.2417
53.506106 67.586 25.1514
53.893833 67.791 12.5343
54.284370 67.730 -1.2657
54.677737 67.363 -15.8005
55.073955 66.672 -30.5684
55.473043 65.654 -45.0348
55.875024 64.336 -58.6709
56.279917 62.775 -71.0358
56.687745 61.072 -81.9109
57.098527 59.366 -91.6459
57.512287 57.780 -101.2213
57.929045 56.368 -111.7364
58.348822 55.120 -123.8351
58.771642 54.041 -137.6292
59.197525 53.219 -152.8853
59.626495 52.799 -169.2664
60.058573 52.864 173.6323
60.493782 53.339 156.2227
60.932145 54.039 138.9148
61.373685 54.783 121.9961
61.818424 55.449 105.6941
62.266386 55.970 90.2217
62.717593 56.325 75.6711
63.172071 56.526 62.2107
63.629842 56.614 50.0190
64.090930 56.649 39.0935
64.555359 56.703 29.2767
65.023154 56.828 20.1953
65.494339 57.036 11.4194
65.968938 57.307 2.6398
66.446976 57.616 -6.2029
66.928478 57.952 -14.9930
67.413469 58.326 -23.6055
67.901975 58.758 -32.0393
68.394021 59.254 -40.4152
68.889632 59.804 -48.8333
69.388835 60.393 -57.2550
69.891655 61.028 -65.5460
70.398118 61.739 -73.7094
70.908252 62.539 -82.0581
71.422083 63.387 -91.1499
71.939636 64.193 -101.2720
72.460941 64.861 -112.2434
72.986023 65.344 -123.5161
73.514909 65.653 -134.3888
74.047629 65.856 -144.4320
74.584208 66.035 -153.6146
75.124676 66.243 -162.3657
75.669061 66.477 -171.2235
76.217390 66.687 179.4257
76.769692 66.813 169.4639
77.325997 66.796 158.9059
77.886333 66.578 147.9161
78.450730 66.108 136.7075
79.019216 65.330 125.5591
79.591822 64.178 114.9048
80.168577 62.565 105.4376
80.749512 60.399 98.8651
81.334656 57.772 100.6997
81.924040 55.913 131.3342
82.517696 56.985 177.0146
83.115653 59.712 -173.1870
83.717943 62.232 -176.4318
84.324598 64.199 175.9480
84.935649 65.644 166.5930
85.551128 66.655 156.8462
86.171066 67.336 147.5651
86.795497 67.802 139.2123
87.424453 68.157 131.8118
88.057967 68.471 125.0253
88.696071 68.768 118.4651
89.338800 69.048 111.9860
89.986185 69.332 105.6326
90.638262 69.658 99.2922
91.295065 70.048 92.4434
91.956626 70.460 84.3018
92.622982 70.779 74.2948
93.294166 70.853 62.4939
93.970214 70.556 49.7109
94.651161 69.832 37.2872
95.337042 68.721 26.6876
96.027894 67.367 18.8882
96.723752 65.962 13.7957
97.424652 64.666 10.4434
98.130631 63.547 7.7626
98.841726 62.587 4.8729
99.557974 61.694 1.3230
100.279412 60.763 -2.5780
101.006078 59.753 -6.1815
101.738010 58.691 -9.2039
102.475245 57.622 -11.7980
103.217823 56.582 -14.3622
103.965782 55.572 -17.7412
104.719161 54.502 -22.7476
105.477999 53.216 -29.0500
106.242336 51.624 -35.3148
107.012212 49.775 -40.3020
107.787666 47.930 -43.3909
108.568740 46.697 -46.6211
109.355474 46.648 -56.6891
110.147909 47.509 -76.3403
110.946086 48.738 -100.1733
111.750047 50.134 -121.5973
112.559834 51.632 -138.2362
113.375489 53.155 -150.8123
114.197055 54.644 -160.6104
115.024574 56.079 -168.7267
115.858089 57.423 -176.2515
116.697645 58.596 175.9128
117.543284 59.502 167.6461
118.395051 60.104 159.8408
119.252990 60.479 153.8011
120.117147 60.813 150.3943
120.987565 61.334 149.4895
121.864291 62.167 149.3737
122.747370 63.225 147.8789
123.636848 64.324 144.3558
124.532771 65.342 139.2759
125.435187 66.224 133.1517
126.344142 66.956 126.5139
127.259684 67.573 119.9354
128.181860 68.148 113.7124
129.110718 68.737 107.4299
130.046308 69.310 100.1359
130.988677 69.756 91.4122
131.937875 69.991 81.8922
132.893951 70.023 72.5253
133.856956 69.926 63.6511
134.826938 69.777 55.0142
135.803950 69.617 45.9027
136.788041 69.388 34.9061
137.779264 68.886 21.1520
138.777669 67.880 5.4321
139.783309 66.237 -11.0063
140.796237 63.919 -28.1959
141.816504 61.003 -49.2651
142.844165 58.251 -100.8843
143.879273 57.759 153.0430
144.921881 59.335 124.7644
145.972045 60.964 108.9382
147.029819 62.079 97.3064
148.095257 62.741 88.5728
149.168417 63.129 82.4375
150.249353 63.428 78.5005
151.338121 63.812 76.3052
152.434780 64.380 74.3848
153.539385 65.011 70.1631
154.651995 65.424 62.8054
155.772667 65.392 53.9124
156.901460 64.863 46.2322
158.038432 63.982 42.2964
159.183644 63.024 42.2454
160.337154 62.216 44.8926
161.499023 61.796 50.8853
162.669312 62.072 59.0510
163.848081 63.088 65.8784
165.035392 64.479 67.5466
166.231306 65.730 62.6680
167.435887 66.509 53.5332
168.649196 66.693 42.9199
169.871298 66.295 33.3027
171.102255 65.443 26.8438
172.342133 64.388 25.1177
173.590995 63.479 27.6885
174.848907 62.928 31.0088
176.115934 62.714 34.0720
177.392143 62.998 40.4900
178.677599 63.990 47.5732
179.972371 65.245 46.8359
181.276525 66.131 39.1448
182.590129 66.429 29.7903
183.913252 66.287 22.5615
185.245964 66.012 18.1570
186.588332 65.802 14.4202
187.940428 65.615 9.5374
189.302322 65.334 3.8948
190.674085 64.940 -1.6311
192.055788 64.504 -7.0020
193.447503 64.060 -14.2161
194.849303 63.467 -25.4390
196.261262 62.589 -41.6230
197.683452 61.535 -66.9470
199.115948 60.900 -115.7522
200.558824 61.517 169.2786
202.012156 63.032 124.8833
203.476019 64.457 98.7290
204.950490 65.392 79.9580
206.435646 65.888 66.2524
207.931564 66.243 57.7783
209.438322 66.853 53.7734
210.955998 67.658 47.3208
212.484672 68.036 34.4597
214.024424 67.565 21.1135
215.575333 66.454 15.1453
217.137481 65.573 20.6531
218.710948 65.850 29.8621
220.295818 66.899 29.8247
221.892172 67.689 20.3813
223.500094 67.699 7.4436
225.119668 66.877 -3.2600
226.750978 65.495 -6.9451
228.394109 64.048 -4.3691
230.049147 62.914 -0.3118
231.716178 62.609 11.7087
233.395289 63.928 33.0400
235.086567 66.209 40.6343
236.790102 68.246 33.6919
238.505980 69.601 20.3508
240.234293 70.280 5.2014
241.975130 70.313 -11.2458
243.728581 69.543 -28.9558
245.494739 67.783 -42.9033
247.273695 65.184 -43.6399
249.065542 62.489 -32.1733
250.870374 61.078 -13.7402
252.688284 62.304 20.0586
254.519367 65.030 33.9082
256.363720 67.537 28.7686
258.221437 69.226 15.1995
260.092616 69.917 -2.1292
261.977354 69.615 -18.2412
263.875750 68.607 -27.6653
265.787903 67.569 -28.0708
267.713911 67.215 -24.9678
269.653877 67.436 -27.5393
271.607900 67.443 -37.2112
273.576083 66.729 -47.8965
275.558528 65.361 -53.0281
277.555338 63.985 -47.4712
279.566619 63.644 -32.7932
281.592474 64.173 -31.3445
283.633009 64.246 -42.2271
285.688331 63.630 -42.1282
287.758546 63.863 -11.3674
289.843763 65.570 -2.8542
291.944090 67.488 -8.6018
294.059638 68.876 -20.2930
296.190515 69.497 -35.1892
298.336833 69.336 -49.8713
300.498705 68.476 -61.9385
302.676243 67.093 -68.3647
304.869559 65.721 -64.2993
307.078770 65.352 -51.9199
309.303989 66.271 -44.3877
311.545334 67.719 -45.1370
313.802919 69.176 -50.1995
316.076865 70.437 -59.0574
318.367288 71.307 -71.8049
320.674309 71.597 -87.4092
322.998047 71.192 -103.1755
325.338624 70.228 -114.1521
327.696162 69.321 -116.1780
330.070783 69.105 -117.6980
332.462612 69.240 -126.3691
334.871773 69.102 -138.3369
337.298392 68.617 -148.1592
339.742595 68.163 -154.4570
342.204510 68.123 -159.5000
344.684265 68.404 -168.5254
347.181989 68.450 176.7314
349.697813 67.936 161.6489
352.231868 66.981 149.0957
354.784285 65.870 141.1499
357.355198 65.283 141.9329
359.944741 65.648 139.8823
362.553049 66.196 128.3457
365.180258 66.259 114.0537
367.826505 66.146 106.3223
370.491927 66.658 105.1724
373.176665 67.568 95.8665
375.880856 68.071 80.0850
378.604644 68.108 66.2273
381.348169 67.920 53.7712
384.111575 67.510 41.3684
386.895006 66.859 31.2896
389.698607 66.173 25.8259
392.522524 65.626 20.4253
395.366904 65.297 17.7422
398.231895 65.708 21.4495
401.117648 66.785 19.2866
404.024312 67.631 7.1887
406.952038 67.821 -6.8232
409.900981 67.632 -16.7073
412.871292 67.473 -24.9929
415.863128 67.392 -34.5308
418.876643 67.150 -47.0002
421.911996 66.505 -59.8867
424.969344 65.433 -72.5159
428.048847 63.894 -83.2996
431.150666 62.861 -73.1477
434.274961 64.140 -41.3364
437.421897 66.277 -49.0637
440.591636 67.509 -73.4692
443.784345 67.644 -97.9570
447.000189 67.447 -114.0718
450.239337 67.636 -131.7844
453.501956 67.808 -157.0769
456.788219 67.630 175.5662
460.098294 67.119 147.4385
463.432356 66.325 120.7654
466.790578 65.566 97.4045
470.173135 64.883 71.6118
473.580203 63.617 43.8677
477.011961 61.933 30.8950
480.468586 62.355 86.3413
483.950259 65.040 93.7966
487.457163 67.300 70.3853
490.989478 68.494 43.7708
494.547390 68.898 20.2185
498.131084 68.770 -0.7847
501.740748 68.246 -18.6726
505.376568 67.623 -32.9146
509.038735 67.009 -48.5459
512.727439 66.130 -65.8540
516.442874 65.151 -78.6936
520.185232 65.010 -87.8154
523.954708 65.549 -114.4907
527.751500 65.536 -163.5942
531.575805 64.881 121.8206
535.427822 64.012 45.6885
539.307753 62.801 -3.7898
543.215800 61.151 -27.7715
547.152165 60.340 -13.9429
551.117055 61.508 -12.8425
555.110677 63.396 -25.0818
559.133237 65.200 -41.3293
563.184947 66.867 -59.6960
567.266018 68.078 -84.9287
571.376661 68.278 -116.7019
575.517092 67.179 -147.8655
579.687526 65.117 -165.6560
583.888181 63.085 -177.0713
588.119275 61.273 166.0974
592.381030 59.874 -166.4023
596.673667 59.516 -165.0647
600.997410 59.416 176.7246
605.352485 59.943 174.9062
609.739119 61.628 173.8083
614.157540 63.550 158.8789
618.607979 65.226 140.5549
623.090667 66.564 120.3789
627.605839 67.540 101.3450
632.153730 68.380 87.0459
636.734576 68.725 64.6099
641.348617 68.308 43.7910
645.996094 67.891 27.1211
650.677248 67.500 3.1323
655.392323 66.839 -25.0547
660.141566 66.178 -62.3604
664.925224 65.689 -122.1875
669.743546 66.621 169.7837
674.596784 69.293 125.0459
679.485191 71.832 87.0791
684.409020 73.186 47.0752
689.368530 72.979 7.4478
694.363979 71.261 -23.4355
699.395626 68.719 -41.4111
704.463736 66.349 -59.3350
709.568570 64.619 -83.7744
714.710396 63.578 -124.1406
719.889483 63.481 40.6084
725.106099 64.654 -3.1313
730.360516 65.909 -43.2847
735.653010 66.081 -87.8213
740.983855 65.208 -129.4546
746.353329 64.539 -162.9570
751.761713 64.693 160.1416
757.209288 65.070 125.6938
762.696339 65.972 104.6377
768.223151 67.711 90.7500
773.790013 68.928 63.0498
779.397214 68.888 32.3721
785.045047 67.954 3.3687
790.733808 66.402 -8.3257
796.463791 65.578 42.6665
802.235296 66.640 35.3130
808.048623 68.464 19.7886
813.904077 69.614 -7.2832
819.801961 69.239 -40.1738
825.742584 67.470 -64.8906
831.726255 65.576 -82.3018
837.753287 64.610 -112.0542
843.823992 64.236 -157.0220
849.938689 64.141 155.7285
856.097695 65.340 142.0264
862.301332 67.617 123.3774
868.549922 69.134 89.5093
874.843793 69.492 60.0537
881.183272 69.551 41.6357
887.568689 69.836 24.7212
894.000378 69.872 5.7412
900.478673 69.453 -9.8550
907.003913 69.047 -24.5869
913.576437 68.735 -43.5981
920.196588 68.311 -69.4849
926.864712 67.409 -108.3496
933.581156 66.277 -167.9126
940.346270 66.308 119.8291
947.160407 67.315 71.6680
954.023921 67.870 38.2349
960.937172 67.925 15.3477
967.900519 67.833 -1.1421
974.914325 67.678 -15.6860
981.978956 67.162 -32.5444
989.094780 66.007 -50.4463
996.262169 64.411 -59.1187
1003.481495 64.450 5.9775
1010.753136 66.431 11.6670
1018.077470 67.845 -9.5400
1025.454879 68.306 -29.3638
1032.885748 68.385 -45.4019
1040.370463 68.234 -63.6489
1047.909417 67.358 -85.2368
1055.503000 65.722 -81.9146
1063.151610 64.671 -62.2915
1070.855645 64.686 -78.9663
1078.615506 64.737 -109.8145
1086.431599 64.471 -161.8794
1094.304330 65.354 67.4473
1102.234110 67.195 15.8730
1110.221353 68.675 -19.5059
1118.266475 69.518 -52.5044
1126.369895 69.150 -88.6182
1134.532035 67.537 -125.7861
1142.753322 65.310 -163.0000
1151.034184 63.582 -30.9424
1159.375052 63.062 -16.8320
1167.776361 63.828 -10.6836
1176.238550 65.774 -19.1289
1184.762060 67.682 -23.7236
1193.347334 67.867 -55.2837
1201.994821 65.868 -77.2114
1210.704971 62.802 -72.6143
1219.478238 60.731 -69.6733
1228.315080 60.592 -57.2632
1237.215957 61.319 -62.3608
1246.181334 61.251 -75.2422
1255.211678 60.649 -58.2192
1264.307459 60.305 -47.6904
1273.469152 60.789 -26.8740
1282.697235 62.061 -21.3110
1291.992188 63.420 -32.6704
1301.354495 64.539 -46.6099
1310.784647 65.046 -60.8989
1320.283132 65.580 -59.5493
1329.850448 66.358 -69.3384
1339.487093 66.308 -92.1392
1349.193569 65.099 -112.1855
1358.970381 63.119 -104.1084
1368.818041 62.404 -82.0278
1378.737061 63.474 -88.7700
1388.727958 64.173 -111.9414
1398.791253 63.999 -120.4189
1408.927471 64.219 -62.9336
1419.137140 64.971 -77.5396
1429.420793 65.163 -102.3594
1439.778965 64.112 -121.6758
1450.212197 62.702 -122.3257
1460.721033 61.743 -133.1807
1471.306019 61.416 -146.3320
1481.967709 62.795 -52.2109
1492.706658 64.708 -67.8521
1503.523426 65.533 -96.9717
1514.418576 65.243 -124.4790
1525.392678 64.051 -142.4565
1536.446302 62.759 -144.3076
1547.580025 61.484 -147.5117
1558.794428 60.577 -86.7769
1570.090095 60.723 -86.4258
1581.467615 61.224 -98.3418
1592.927581 61.835 -106.0591
1604.470591 62.976 -103.6841
1616.097246 64.424 -109.6729
1627.808153 65.437 -123.6235
1639.603922 66.215 -133.1245
1651.485168 66.885 -146.1655
1663.452510 67.023 -165.9233
1675.506573 66.596 174.8423
1687.647984 65.859 152.6421
1699.877377 64.500 134.4497
1712.195390 63.171 151.3706
1724.602663 63.310 -165.4771
1737.099845 64.032 -165.3184
1749.687587 64.153 174.7109
1762.366544 63.590 147.4463
1775.137379 62.630 119.9263
1788.000756 61.734 156.2051
1800.957346 61.101 168.9043
1814.007826 60.892 139.8027
1827.152874 62.148 104.7261
1840.393177 64.541 32.3154
1853.729425 66.913 -56.5244
1867.162312 68.724 -112.7505
1880.692540 69.469 -158.7939
1894.320813 68.998 161.3276
1908.047843 67.837 128.4121
1921.874344 66.569 98.7949
1935.801038 65.316 99.2471
1949.828650 64.579 104.3008
1963.957912 64.095 71.4116
1978.189561 63.904 34.8032
1992.524338 64.298 -56.4229
2006.962991 64.782 -148.4175
2021.506272 65.902 174.4380
2036.154940 66.678 122.2129
2050.909758 65.995 66.6260
2065.771495 64.015 20.5425
2080.740927 62.917 -5.4980
2095.818833 64.328 -23.6372
2111.006001 66.780 -54.4595
2126.303220 69.143 -90.1162
2141.711290 70.215 -131.3276
2157.231013 69.533 -164.8081
2172.863198 68.104 -179.5571
2188.608660 67.330 169.0137
2204.468221 66.951 148.0679
2220.442706 65.789 126.1787
2236.532950 64.019 131.4155
2252.739789 63.389 140.2690
2269.064070 64.260 127.9619
2285.506644 64.980 105.9438
2302.068367 64.313 73.8354
2318.750104 62.746 24.8823
2335.552723 62.171 -89.8125
2352.477101 62.796 -146.4033
2369.524119 63.718 -171.7295
2386.694668 64.871 172.5596
2403.989641 65.788 153.7251
2421.409941 65.610 132.0762
2438.956476 64.689 123.0757
2456.630160 64.372 125.7427
2474.431915 64.603 122.8462
2492.362668 64.521 113.9194
2510.423356 64.302 106.3960
2528.614918 64.547 121.3965
2546.938304 65.394 127.2764
2565.394469 66.416 113.6440
2583.984375 66.614 89.6055
2602.708991 65.354 67.3379
2621.569293 63.372 53.8486
2640.566265 62.277 56.8394
2659.700897 63.305 146.9692
2678.974186 65.235 130.3965
2698.387137 66.365 105.7139
2717.940763 66.020 80.3120
2737.636082 64.222 67.1924
2757.474121 63.197 97.9170
2777.455915 64.905 119.4487
2797.582506 66.619 97.9551
2817.854942 66.738 70.6206
2838.274281 65.587 50.2769
2858.841586 64.180 51.4341
2879.557931 63.845 70.4868
2900.424394 63.793 69.1230
2921.442065 63.118 57.6973
2942.612039 62.149 50.7100
2963.935418 61.666 60.9146
2985.413316 62.452 71.6689
3007.046852 63.310 57.0156
3028.837153 62.890 37.7764
3050.785356 62.161 54.9155
3072.892604 62.370 84.3091
3095.160050 62.625 87.5518
3117.588856 62.374 70.6997
3140.180190 61.932 50.0649
3162.935230 61.360 39.4785
3185.855163 60.848 55.5918
3208.941182 60.658 39.0039
3232.194493 60.511 9.5791
3255.616307 60.578 141.4888
3279.207844 60.944 117.7104
3302.970336 62.050 109.9702
3326.905021 63.308 93.1182
3351.013146 63.465 70.9790
3375.295969 62.817 64.4521
3399.754755 62.176 61.4141
3424.390779 61.217 43.3335
3449.205326 59.472 30.1519
3474.199690 58.108 36.4233
3499.375173 57.549 91.4199
3524.733088 57.579 88.3325
3550.274757 58.568 85.1411
3576.001511 60.476 92.6592
3601.914692 61.905 94.0210
3628.015651 62.465 90.3008
3654.305748 62.278 73.7505
3680.786354 61.698 64.5127
3707.458849 60.626 57.6709
3734.324624 59.231 71.2280
3761.385080 58.462 83.4038
3788.641627 59.082 126.7988
3816.095686 60.189 122.8789
3843.748688 60.816 116.1001
3871.602076 61.770 116.2793
3899.657300 62.582 103.8706
3927.915825 62.434 89.6396
3956.379122 61.629 81.3955
3985.048676 61.165 78.1074
4013.925981 61.832 97.5098
4043.012544 62.892 102.8481
4072.309879 63.397 100.4390
4101.819515 63.399 94.0913
4131.542990 62.935 88.3862
4161.481854 62.870 88.9888
4191.637667 63.608 88.2617
4222.012001 64.358 79.7275
4252.606441 64.395 68.3584
4283.422580 64.148 68.5737
4314.462026 64.466 69.8311
4345.726396 64.922 67.5581
4377.217321 65.171 61.8687
4408.936442 65.308 60.7959
4440.885413 65.357 55.6499
4473.065899 64.933 47.1074
4505.479579 64.237 42.7480
4538.128141 63.285 38.5200
4571.013288 62.585 43.6104
4604.136735 62.606 44.1655
4637.500207 62.770 41.3750
4671.105446 63.053 36.2334
4704.954201 63.085 28.7593
4739.048239 62.983 37.8994
4773.389336 63.331 40.2412
4807.979283 63.357 27.6992
4842.819883 62.836 21.6665
4877.912952 62.065 18.7681
4913.260320 61.046 17.7539
4948.863830 59.706 15.1475
4984.725337 58.594 23.6597
5020.846712 58.618 40.7158
5057.229836 59.359 51.0210
5093.876609 59.530 40.1860
5130.788938 59.234 44.1714
5167.968750 59.093 44.4727
5205.417982 59.438 40.9575
5243.138586 59.942 76.3599
5281.132530 60.627 96.9995
5319.401793 61.152 83.2329
5357.948371 61.352 73.7378
5396.774274 61.629 66.9814
5435.881525 62.125 60.6919
5475.272163 62.356 49.3291
5514.948243 62.212 58.7153
5554.911831 62.810 70.7090
5595.165012 63.565 59.5254
5635.709884 63.612 50.6196
5676.548561 63.488 47.8887
5717.683172 63.422 40.4819
5759.115861 63.090 37.6167
5800.848789 62.849 41.3989
5842.884130 63.354 44.5601
5885.224077 64.182 35.9858
5927.870837 64.488 23.3765
5970.826633 64.336 12.1606
6014.093704 63.538 -1.6777
6057.674306 62.123 -5.3438
6101.570711 61.338 1.3984
6145.785208 61.452 -5.1162
6190.320101 61.627 -13.3384
6235.177712 61.666 -18.8306
6280.360380 61.369 -36.9458
6325.870460 60.311 -53.5840
6371.710325 58.858 -48.0225
6417.882365 57.699 -45.0498
6464.388986 57.257 79.4092
6511.232613 57.306 87.7183
6558.415689 58.247 122.8750
6605.940673 59.871 120.0776
6653.810042 60.982 97.6846
6702.026292 61.453 84.7412
6750.591937 61.860 77.5659
6799.509509 62.302 65.6802
6848.781558 62.419 53.3960
6898.410653 62.276 42.9336
6948.399380 62.204 37.3066
6998.750346 62.400 41.2134
7049.466176 62.345 33.6182
7100.549514 61.852 23.2578
7152.003023 61.112 16.9004
7203.829385 60.513 17.5801
7256.031302 60.394 22.2910
7308.611496 60.650 23.4941
7361.572708 60.407 11.4414
7414.917698 59.317 7.1079
7468.649249 58.555 10.8291
7522.770160 58.974 30.4268
7577.283253 59.694 32.4575
7632.191371 59.807 20.5625
7687.497376 59.750 15.3960
7743.204151 60.000 16.0933
7799.314600 60.503 77.0566
7855.831649 60.888 72.9556
7912.758244 60.644 66.9453
7970.097352 60.591 69.6191
8027.851962 61.243 71.6367
8086.025087 62.314 69.0254
8144.619758 63.131 57.0796
8203.639030 63.496 49.4658
8263.085980 63.760 45.6250
8322.963708 63.812 42.5005
8383.275334 63.829 37.1235
8444.024002 63.929 34.1313
8505.212881 64.346 31.4653
8566.845160 64.455 21.8477
8628.924051 64.193 17.6719
8691.452792 64.088 15.9438
8754.434642 64.233 12.2158
8817.872884 64.155 0.6206
8881.770826 63.435 -6.8379
8946.131799 62.568 -6.3247
9010.959157 62.195 0.2495
9076.256282 62.087 -3.5674
9142.026576 61.448 -9.7988
9208.273470 61.062 1.9233
9275.000415 61.696 19.2612
9342.210891 62.152 10.7236
9409.908403 61.869 0.8076
9478.096478 61.601 3.5854
9546.778672 61.876 8.2407
9615.958566 62.017 3.3916
9685.639765 61.784 -2.2236
9755.825904 61.700 -2.8901
9826.520640 62.140 -2.5000
9897.727659 62.465 -11.4360
9969.450674 62.007 -19.4458
10041.693423 61.522 -19.9409
10114.459673 61.428 -24.6426
10187.753217 61.193 -31.9858
10261.577877 60.633 -41.9614
10335.937500 59.656 -50.0298
10410.835964 58.726 -39.8994
10486.277173 58.326 -32.5977
10562.265060 58.061 -38.3154
10638.803587 57.392 -47.0127
10715.896743 56.518 -23.2676
10793.548548 56.105 -1.8125
10871.763050 56.670 49.4067
10950.544327 57.669 49.3218
11029.896485 58.342 34.2339
11109.823662 58.823 27.7646
11190.330024 59.591 26.7534
11271.419768 60.147 16.1514
11353.097122 59.867 3.7612
11435.366344 59.188 0.1226
11518.231722 58.750 -3.2192
11601.697577 58.187 -8.8809
11685.768261 57.380 -7.7935
11770.448155 56.953 2.1313
11855.741674 57.224 7.9385
11941.653265 57.531 4.5527
12028.187408 57.720 4.5083
12115.348612 58.031 3.5176
12203.141422 58.108 -2.5234
12291.570415 57.755 -7.0249
12380.640201 57.359 -6.6675
12470.355424 56.899 -9.1772
12560.720760 56.833 9.1016
12651.740920 58.362 26.5527
12743.420650 60.228 19.8999
12835.764729 61.332 6.6250
12928.777972 61.536 -6.1274
13022.465227 60.916 -18.4556
13116.831378 59.733 -24.8926
13211.881345 58.711 -22.1162
13307.620084 58.165 -20.7764
13404.052584 58.009 -17.0547
13501.183875 58.363 -9.0952
13599.019019 58.731 -7.8364
13697.563116 59.034 -9.7476
13796.821305 59.538 -14.4463
13896.798760 59.938 -24.3589
13997.500692 59.807 -35.7310
14098.932352 59.200 -44.9956
14201.099028 58.091 -55.4199
14304.006046 56.390 -59.6118
14407.658770 54.829 -50.5059
14512.062604 54.135 -39.4868
14617.222992 54.304 -31.7378
14723.145416 54.888 -35.0737
14829.835397 55.009 -44.6553
14937.298497 54.595 -52.7368
15045.540320 53.821 -60.3320
15154.566507 52.567 -63.8105
15264.382743 51.353 -59.9263
15374.994752 50.346 -61.4180
15486.408302 49.482 -57.4878
15598.629201 49.077 -57.5225
15711.663298 48.427 -59.6650
15825.516487 47.570 -42.6177
15940.194703 46.706 -32.8813
16055.703925 46.599 -19.9795
16172.050174 47.330 -21.1230
16289.239516 48.152 -24.2612
16407.278061 48.652 -34.0259
16526.171961 48.202 -51.7163
16645.927415 47.574 -70.7588
16766.550667 47.792 -133.0220
16888.048005 48.655 98.8003
17010.425762 49.828 68.8809
17133.690320 51.023 51.2363
17257.848103 51.645 34.6304
17382.905584 51.860 27.2231
17508.869284 52.157 22.1475
17635.745768 52.510 17.9551
17763.541652 52.717 11.2651
17892.263597 52.310 3.9917
18021.918315 51.676 2.1206
18152.512564 51.249 1.2207
18284.053153 51.152 4.4258
18416.546939 51.415 7.5454
18550.000830 52.141 6.9946
18684.421783 52.756 -0.2627
18819.816805 52.910 -9.5649
18956.192956 52.584 -20.6548
19093.557344 51.768 -31.4155
19231.917131 50.510 -41.7925
19371.279531 48.743 -51.2261
19511.651807 46.455 -55.4727
19653.041280 44.016 -45.8286
19795.455318 42.193 -28.1382
19938.901348 41.144 -20.8086
