* Measurement data measured by REW V5.31
* Source: Scarlett 2i4 USB, MICROPHONE, R, volume: no control. Timing signal peak level -29.7 dBFS, measurement signal peak level -23.2 dBFS
* Format: 512k Log Swept Sine, 1 sweep at -18.0 dBFS using an acoustic timing reference
* Dated: Apr 16, 2024 3:40:54 PM
* REW Settings:
*  C-weighting compensation: Off
*  Target level: 75.0 dB
* Note: ; Delay -0.9791 ms (-336 mm, -(1 ft 1.22 in)) using IR start time relative to Acoustic reference played from SPEAKER L with no timing offset
* Measurement: screen-p2-rr
* Smoothing: 1/48 octave
* Frequency Step: 96 ppo
* Start Frequency: 10.093689 Hz
*
* Freq(Hz) SPL(dB) Phase(degrees)
10.093689 20.388 -85.1518
10.166832 20.394 -91.5440
10.240505 20.402 -98.2833
10.314712 20.409 -105.0845
10.389457 20.408 -111.6182
10.464743 20.372 -117.6818
10.540575 20.281 -123.9493
10.616956 20.147 -130.4131
10.693891 19.966 -136.7778
10.771383 19.732 -142.6468
10.849437 19.449 -148.2813
10.928057 19.113 -154.0767
11.007246 18.712 -159.8452
11.087009 18.228 -165.1982
11.167350 17.657 -169.8882
11.248273 17.001 -174.3563
11.329783 16.252 -178.5560
11.411883 15.391 177.8381
11.494578 14.357 175.4472
11.577873 13.109 174.6237
11.661771 11.825 175.5842
11.746277 10.765 178.6279
11.831395 10.123 -175.7045
11.917130 9.848 -166.1299
12.003487 9.899 -155.1457
12.090469 10.275 -146.4075
12.178081 11.037 -141.3725
12.266329 12.169 -138.8026
12.355216 13.404 -138.2452
12.444747 14.475 -139.2344
12.534926 15.302 -141.7249
12.625760 15.975 -145.2595
12.717251 16.512 -149.1297
12.809406 16.917 -153.0038
12.902228 17.184 -157.6055
12.995723 17.314 -162.6864
13.089895 17.308 -167.6082
13.184750 17.169 -172.2199
13.280292 16.898 -177.4019
13.376526 16.461 177.2676
13.473458 15.833 172.5254
13.571093 15.038 168.0010
13.669434 14.020 163.3168
13.768489 12.618 159.0618
13.868261 10.556 156.3077
13.968756 7.816 155.5035
14.069979 5.209 158.9562
14.171936 3.964 176.4091
14.274632 4.458 -128.4102
14.378072 5.886 -96.2243
14.482261 7.496 -88.3097
14.587206 9.212 -87.8834
14.692910 10.933 -89.7318
14.799381 12.317 -91.5712
14.906624 13.201 -93.5704
15.014643 13.731 -95.9313
15.123446 14.065 -97.4239
15.233036 14.259 -97.6375
15.343421 14.319 -97.1295
15.454606 14.407 -95.5286
15.566596 14.632 -92.4567
15.679398 14.978 -88.2684
15.793018 15.506 -84.2995
15.907460 16.279 -81.1171
16.022732 17.237 -78.5676
16.138840 18.224 -77.6213
16.255788 19.171 -78.2913
16.373585 20.076 -79.8819
16.492234 20.871 -82.3153
16.611744 21.529 -85.7454
16.732119 22.053 -89.7294
16.853367 22.433 -93.8121
16.975494 22.664 -98.5149
17.098505 22.739 -103.4058
17.222408 22.650 -107.9464
17.347209 22.394 -112.8286
17.472914 21.945 -117.4161
17.599530 21.285 -121.2224
17.727063 20.406 -124.6649
17.855521 19.268 -126.7304
17.984909 17.784 -126.4312
18.115235 16.246 -122.7913
18.246506 15.083 -113.8121
18.378727 14.408 -97.5467
18.511907 14.557 -80.5634
18.646052 15.746 -69.0465
18.781169 17.376 -63.2765
18.917265 18.770 -61.8528
19.054347 19.932 -63.0686
19.192423 20.868 -65.3707
19.331499 21.561 -68.6661
19.471583 22.053 -72.4379
19.612682 22.386 -76.1521
19.754804 22.566 -80.1568
19.897956 22.627 -83.9103
20.042144 22.577 -87.5995
20.187378 22.433 -91.1418
20.333664 22.209 -94.4656
20.481010 21.899 -97.6697
20.629424 21.501 -100.6973
20.778913 21.003 -103.6050
20.929486 20.364 -106.1269
21.081150 19.568 -108.3389
21.233912 18.551 -109.3825
21.387782 17.263 -108.6824
21.542767 15.940 -104.4688
21.698874 14.739 -93.6617
21.856113 14.284 -76.1072
22.014492 15.277 -58.5730
22.174018 17.076 -48.2362
22.334700 18.907 -45.6386
22.496546 20.637 -46.9499
22.659566 22.022 -51.0391
22.823766 23.085 -56.6277
22.989157 23.858 -62.9166
23.155745 24.347 -70.0143
23.323542 24.564 -76.8535
23.492554 24.503 -84.0569
23.662790 24.153 -90.3019
23.834261 23.500 -96.1762
24.006973 22.515 -100.0895
24.180938 21.231 -101.8289
24.356163 19.744 -99.2518
24.532658 18.381 -90.4752
24.710431 17.836 -76.1822
24.889493 18.120 -60.6694
25.069853 19.035 -50.1063
25.251519 20.137 -42.8699
25.434502 21.079 -37.4253
25.618811 22.050 -31.1921
25.804456 23.190 -23.7273
25.991445 24.699 -16.4497
26.179790 26.551 -10.6121
26.369500 28.506 -8.3492
26.560584 30.432 -8.6605
26.753053 32.163 -11.5350
26.946917 33.675 -15.7708
27.142185 34.943 -21.1635
27.338869 35.977 -26.9014
27.536977 36.784 -32.9836
27.736522 37.388 -38.7503
27.937512 37.809 -44.1615
28.139959 38.079 -48.8535
28.343872 38.256 -52.5923
28.549264 38.389 -55.3098
28.756143 38.567 -57.0003
28.964522 38.840 -58.0580
29.174411 39.247 -58.8217
29.385821 39.761 -60.0882
29.598763 40.335 -61.9934
29.813248 40.896 -64.8814
30.029287 41.384 -68.4992
30.246891 41.761 -72.7750
30.466073 41.998 -77.3318
30.686842 42.088 -81.8704
30.909212 42.033 -86.2221
31.133193 41.851 -89.8923
31.358797 41.576 -92.7385
31.586035 41.252 -94.4820
31.814921 40.957 -95.0328
32.045465 40.759 -94.6096
32.277680 40.707 -93.4923
32.511577 40.818 -92.3914
32.747169 41.048 -91.7440
32.984469 41.340 -91.7469
33.223488 41.626 -92.4336
33.464239 41.859 -93.4497
33.706735 42.030 -94.4738
33.950987 42.148 -95.1569
34.197010 42.267 -95.0977
34.444816 42.463 -94.3017
34.694417 42.801 -93.0230
34.945827 43.321 -91.7809
35.199059 43.988 -91.3896
35.454126 44.722 -92.2112
35.711041 45.441 -94.2572
35.969818 46.070 -97.3782
36.230470 46.563 -101.1598
36.493011 46.907 -105.1451
36.757455 47.110 -108.9831
37.023814 47.198 -112.3432
37.292104 47.217 -114.9252
37.562338 47.230 -116.6531
37.834530 47.287 -117.6606
38.108695 47.425 -118.1923
38.384846 47.654 -118.5621
38.662999 47.962 -119.0502
38.943167 48.327 -119.8131
39.225365 48.730 -120.9070
39.509608 49.156 -122.3613
39.795911 49.592 -124.1837
40.084289 50.023 -126.3500
40.374756 50.437 -128.7859
40.667328 50.834 -131.3535
40.962020 51.234 -133.9294
41.258848 51.669 -136.5339
41.557827 52.166 -139.3905
41.858972 52.729 -142.8759
42.162299 53.322 -147.3714
42.467824 53.882 -153.1073
42.775564 54.333 -160.0897
43.085533 54.608 -168.1171
43.397749 54.656 -176.8350
43.712227 54.445 174.2232
44.028983 53.960 165.5885
44.348036 53.209 157.8445
44.669400 52.229 151.6105
44.993093 51.105 147.4261
45.319131 49.966 145.4650
45.647532 48.946 145.2033
45.978313 48.098 145.5435
46.311491 47.354 145.6017
46.647083 46.587 145.3584
46.985107 45.704 145.5866
47.325581 44.714 147.3895
47.668521 43.732 151.6124
48.013947 42.936 158.1780
48.361876 42.450 165.9594
48.712326 42.277 173.7776
49.065315 42.362 -178.7074
49.420863 42.684 -171.3699
49.778987 43.251 -164.3671
50.139706 44.047 -158.2180
50.503039 45.018 -153.3235
50.869005 46.110 -149.7015
51.237623 47.303 -147.1951
51.608912 48.597 -145.8216
51.982891 49.978 -145.9081
52.359580 51.391 -147.9086
52.739000 52.749 -152.0946
53.121168 53.959 -158.3997
53.506106 54.944 -166.4741
53.893833 55.648 -175.8339
54.284370 56.037 174.0603
54.677737 56.096 163.7980
55.073955 55.830 154.0035
55.473043 55.267 145.3162
55.875024 54.466 138.3217
56.279917 53.517 133.4319
56.687745 52.531 130.7125
57.098527 51.603 129.7853
57.512287 50.782 130.1347
57.929045 50.081 131.5207
58.348822 49.525 133.9686
58.771642 49.173 137.4052
59.197525 49.085 141.4235
59.626495 49.295 145.4040
60.058573 49.796 148.6477
60.493782 50.530 150.3289
60.932145 51.376 149.7393
61.373685 52.188 146.7421
61.818424 52.837 141.7797
62.266386 53.253 135.6763
62.717593 53.428 129.2578
63.172071 53.406 123.2281
63.629842 53.264 117.9754
64.090930 53.081 113.4583
64.555359 52.905 109.3333
65.023154 52.743 105.2316
65.494339 52.579 100.9865
65.968938 52.396 96.5974
66.446976 52.185 92.1096
66.928478 51.944 87.5563
67.413469 51.670 82.9919
67.901975 51.366 78.5256
68.394021 51.047 74.3070
68.889632 50.739 70.4522
69.388835 50.478 67.0198
69.891655 50.307 64.0168
70.398118 50.272 61.4047
70.908252 50.430 59.1340
71.422083 50.849 57.0438
71.939636 51.586 54.6783
72.460941 52.622 51.0744
72.986023 53.839 45.3487
73.514909 55.064 37.1871
74.047629 56.160 27.1378
74.584208 57.066 16.1071
75.124676 57.806 5.1049
75.669061 58.462 -5.2574
76.217390 59.129 -14.9213
76.769692 59.842 -24.4415
77.325997 60.555 -34.3936
77.886333 61.183 -44.8583
78.450730 61.681 -55.4403
79.019216 62.055 -65.7515
79.591822 62.324 -75.7510
80.168577 62.468 -85.6322
80.749512 62.428 -95.2499
81.334656 62.184 -103.7518
81.924040 61.833 -110.0629
82.517696 61.567 -114.1403
83.115653 61.501 -117.5398
83.717943 61.532 -121.8206
84.324598 61.489 -126.7233
84.935649 61.320 -131.0653
85.551128 61.085 -134.1228
86.171066 60.871 -135.8607
86.795497 60.750 -136.3712
87.424453 60.796 -135.9614
88.057967 61.026 -135.5869
88.696071 61.364 -135.8623
89.338800 61.760 -136.2855
89.986185 62.262 -136.2538
90.638262 62.946 -136.0885
91.295065 63.816 -136.6920
91.956626 64.793 -138.9590
92.622982 65.730 -143.5183
93.294166 66.462 -150.1447
93.970214 66.902 -157.5502
94.651161 67.101 -164.0930
95.337042 67.232 -168.9366
96.027894 67.451 -172.7831
96.723752 67.773 -176.9974
97.424652 68.111 177.8566
98.130631 68.389 172.0197
98.841726 68.578 165.8389
99.557974 68.673 159.5655
100.279412 68.684 153.4053
101.006078 68.630 147.4099
101.738010 68.515 141.4948
102.475245 68.337 135.8045
103.217823 68.128 130.7872
103.965782 67.976 126.4969
104.719161 67.944 122.1528
105.477999 68.009 116.9058
106.242336 68.105 110.4289
107.012212 68.159 102.4852
107.787666 68.076 92.9355
108.568740 67.764 82.3052
109.355474 67.207 71.5677
110.147909 66.474 61.1659
110.946086 65.640 50.7335
111.750047 64.734 39.8646
112.559834 63.776 28.4363
113.375489 62.806 16.1472
114.197055 61.852 2.8121
115.024574 60.975 -10.9872
115.858089 60.358 -24.5064
116.697645 60.188 -37.9359
117.543284 60.432 -51.8808
118.395051 60.871 -65.9072
119.252990 61.341 -78.7015
120.117147 61.825 -89.1847
120.987565 62.392 -97.0925
121.864291 63.114 -102.8098
122.747370 64.038 -107.1083
123.636848 65.156 -110.9725
124.532771 66.417 -115.1586
125.435187 67.727 -120.5554
126.344142 68.934 -127.9252
127.259684 69.925 -136.6174
128.181860 70.715 -145.3076
129.110718 71.385 -153.5897
130.046308 71.972 -161.9033
130.988677 72.463 -170.5332
131.937875 72.825 -179.5995
132.893951 73.013 170.9351
133.856956 73.003 161.5393
134.826938 72.806 152.4524
135.803950 72.402 143.4075
136.788041 71.733 134.8501
137.779264 70.800 127.8896
138.777669 69.656 122.7258
139.783309 68.301 119.0837
140.796237 66.702 118.2188
141.816504 65.037 124.2212
142.844165 64.153 143.5740
143.879273 65.031 167.4014
144.921881 66.998 177.5308
145.972045 68.992 177.5935
147.029819 70.661 173.1135
148.095257 71.948 166.0551
149.168417 72.841 157.5503
150.249353 73.352 148.5156
151.338121 73.499 139.7856
152.434780 73.351 132.6599
153.539385 73.078 128.1216
154.651995 72.878 125.6824
155.772667 72.852 123.7998
156.901460 72.956 121.1664
158.038432 73.061 117.2251
159.183644 73.038 112.4364
160.337154 72.838 107.8417
161.499023 72.480 104.1526
162.669312 72.042 102.2502
163.848081 71.726 103.2877
165.035392 71.794 106.3857
166.231306 72.262 107.6469
167.435887 72.844 105.2235
168.649196 73.291 100.3711
169.871298 73.495 94.3584
171.102255 73.448 88.3872
172.342133 73.201 82.9868
173.590995 72.760 77.6641
174.848907 72.068 72.7433
176.115934 71.137 70.3870
177.392143 70.218 73.0925
178.677599 69.754 80.0176
179.972371 69.952 86.2119
181.276525 70.537 88.1880
182.590129 71.115 86.3459
183.913252 71.449 82.2871
185.245964 71.493 78.2227
186.588332 71.399 76.4373
187.940428 71.438 77.1982
189.302322 71.712 77.1748
190.674085 71.995 73.8711
192.055788 72.015 68.5295
193.447503 71.671 63.6631
194.849303 71.086 62.1125
196.261262 70.636 65.8472
197.683452 70.707 71.8525
199.115948 71.275 75.2186
200.558824 72.094 76.0542
202.012156 73.053 75.6938
203.476019 74.075 73.2800
204.950490 74.979 67.5532
206.435646 75.598 59.4193
207.931564 75.905 51.0005
209.438322 76.018 43.6649
210.955998 76.076 37.1478
212.484672 76.123 30.2147
214.024424 76.057 21.6152
215.575333 75.701 11.6251
217.137481 74.974 2.5795
218.710948 73.983 -3.6381
220.295818 72.931 -7.1421
221.892172 71.925 -10.0887
223.500094 70.863 -13.5511
225.119668 69.760 -12.4603
226.750978 69.184 -2.1881
228.394109 69.543 5.4265
230.049147 70.293 3.9551
231.716178 71.095 1.2549
233.395289 72.149 -0.0118
235.086567 73.400 -5.9227
236.790102 74.537 -17.2070
238.505980 75.375 -32.2355
240.234293 75.712 -51.5256
241.975130 75.316 -73.3447
243.728581 74.123 -93.6215
245.494739 72.336 -108.4916
247.273695 70.408 -118.6075
249.065542 68.761 -127.8689
250.870374 67.629 -137.4471
252.688284 67.070 -150.6536
254.519367 66.750 -171.2805
256.363720 66.182 161.0536
258.221437 65.211 127.8550
260.092616 64.130 86.6929
261.977354 63.448 31.1941
263.875750 63.483 -32.3853
265.787903 64.125 -82.7235
267.713911 65.099 -118.1613
269.653877 66.128 -145.6963
271.607900 66.870 -170.4943
273.576083 67.090 166.9324
275.558528 66.926 150.2299
277.555338 66.830 139.2557
279.566619 66.885 127.4745
281.592474 66.809 114.8754
283.633009 66.526 103.9216
285.688331 66.052 93.2660
287.758546 65.227 81.8622
289.843763 63.895 73.4568
291.944090 62.311 75.1010
294.059638 61.153 83.7480
296.190515 60.605 86.8698
298.336833 60.350 87.9403
300.498705 61.004 99.9149
302.676243 63.447 123.6260
304.869559 66.621 131.4943
307.078770 69.241 120.1979
309.303989 70.808 98.6075
311.545334 71.287 74.7500
313.802919 70.885 52.6271
316.076865 69.737 31.1121
318.367288 67.702 11.2178
320.674309 64.745 3.8899
322.998047 61.912 38.6741
325.338624 61.515 72.8987
327.696162 62.596 65.7683
330.070783 63.089 49.3489
332.462612 62.665 33.3558
334.871773 61.522 16.7797
337.298392 59.800 -5.8794
339.742595 58.413 -52.7671
342.204510 59.511 -177.5032
344.684265 61.934 150.3110
347.181989 63.739 127.3887
349.697813 64.695 109.7251
352.231868 65.171 98.9526
354.784285 65.617 92.6689
357.355198 66.374 90.3354
359.944741 67.596 88.8193
362.553049 68.850 79.9675
365.180258 69.638 65.5994
367.826505 69.756 49.4568
370.491927 69.273 35.5159
373.176665 68.453 25.0481
375.880856 67.445 14.6294
378.604644 66.072 2.9761
381.348169 64.149 -5.1875
384.111575 62.197 6.6450
386.895006 61.915 38.2539
389.698607 63.208 42.3469
392.522524 64.335 31.3474
395.366904 64.757 18.2764
398.231895 64.477 4.8999
401.117648 63.515 -5.9385
404.024312 62.263 -6.8425
406.952038 61.576 -0.2551
409.900981 61.754 0.8799
412.871292 62.322 -3.0452
415.863128 62.880 -10.7205
418.876643 63.260 -20.6265
421.911996 63.420 -32.3335
424.969344 63.239 -46.4434
428.048847 62.621 -60.4905
431.150666 61.837 -68.3579
434.274961 61.577 -71.7810
437.421897 61.821 -82.7231
440.591636 61.866 -99.7104
443.784345 61.371 -117.3364
447.000189 60.423 -131.0728
450.239337 59.518 -137.5464
453.501956 59.137 -143.1487
456.788219 59.167 -151.0457
460.098294 59.336 -160.1445
463.432356 59.325 -172.1882
466.790578 58.977 177.5137
470.173135 58.434 169.4827
473.580203 57.843 163.1531
477.011961 57.821 167.6367
480.468586 59.092 178.0496
483.950259 60.795 171.5715
487.457163 61.882 154.1384
490.989478 62.119 134.1707
494.547390 61.476 112.8972
498.131084 59.865 92.9058
501.740748 57.480 76.6445
505.376568 55.227 78.1558
509.038735 54.670 -179.5852
512.727439 55.473 167.0955
516.442874 56.431 157.1343
520.185232 57.176 148.6855
523.954708 57.493 138.8118
527.751500 57.503 132.0981
531.575805 57.740 134.7493
535.427822 58.333 135.4985
539.307753 58.565 124.4172
543.215800 58.289 114.5950
547.152165 57.799 106.1389
551.117055 57.557 103.6609
555.110677 58.023 101.2791
559.133237 58.514 79.5369
563.184947 58.394 42.6711
567.266018 58.169 -18.5317
571.376661 58.806 -105.0073
575.517092 60.159 -158.8835
579.687526 61.336 162.9829
583.888181 61.577 126.7031
588.119275 60.407 94.5908
592.381030 57.979 89.7354
596.673667 55.610 100.0137
600.997410 54.377 86.5288
605.352485 53.870 74.1235
609.739119 53.831 55.2324
614.157540 53.896 20.4253
618.607979 55.258 0.0823
623.090667 57.949 -21.2854
627.605839 60.070 -60.7598
632.153730 61.164 -98.1829
636.734576 61.338 -130.3916
641.348617 60.576 -154.7610
645.996094 59.424 -164.2073
650.677248 58.619 -171.8638
655.392323 57.787 174.7781
660.141566 57.151 173.3728
664.925224 58.214 -150.1704
669.743546 60.245 -133.3843
674.596784 61.563 -152.6870
679.485191 62.399 -163.2031
684.409020 63.200 -175.4919
689.368530 63.248 163.3862
694.363979 62.320 146.6685
699.395626 61.086 140.8833
704.463736 60.463 137.3420
709.568570 60.460 124.7695
714.710396 60.198 99.9324
719.889483 58.855 69.1782
725.106099 57.183 46.6526
730.360516 57.650 -13.9204
735.653010 59.599 -80.2329
740.983855 61.111 -125.2241
746.353329 61.404 -161.9277
751.761713 60.399 172.7810
757.209288 58.872 161.3606
762.696339 57.553 148.3420
768.223151 56.406 128.7703
773.790013 55.850 120.3877
779.397214 56.869 -123.7234
785.045047 58.124 -151.8538
790.733808 58.494 -172.1294
796.463791 58.900 -177.1548
802.235296 59.748 171.1514
808.048623 60.055 147.1270
813.904077 59.050 119.9080
819.801961 57.132 110.8323
825.742584 56.378 129.1714
831.726255 57.041 103.8896
837.753287 57.324 53.7595
843.823992 57.473 -5.1260
849.938689 58.148 -58.9504
856.097695 58.782 -102.5393
862.301332 58.610 -140.2605
868.549922 57.277 -162.3628
874.843793 56.126 -136.1687
881.183272 56.639 -137.8948
887.568689 57.589 -155.0139
894.000378 58.013 -175.4346
900.478673 57.253 162.6326
907.003913 55.945 165.1687
913.576437 55.924 170.0693
920.196588 56.579 141.3396
926.864712 56.503 91.4971
933.581156 55.810 15.9263
940.346270 56.275 -52.5015
947.160407 58.148 -92.1377
954.023921 59.463 -129.2021
960.937172 59.308 -162.3545
967.900519 58.243 175.2168
974.914325 56.797 152.8481
981.978956 54.850 136.3125
989.094780 52.679 126.2212
996.262169 50.943 132.7432
1003.481495 50.795 133.3057
1010.753136 51.997 140.6909
1018.077470 54.007 143.0576
1025.454879 56.016 114.6880
1032.885748 57.463 80.4028
1040.370463 58.480 46.3213
1047.909417 58.926 12.0483
1055.503000 58.859 -14.8599
1063.151610 58.976 -34.9351
1070.855645 59.273 -59.9512
1078.615506 59.148 -89.4834
1086.431599 58.162 -119.3970
1094.304330 57.013 -124.4307
1102.234110 57.034 -103.7700
1110.221353 57.235 -129.2964
1118.266475 56.604 -159.1279
1126.369895 55.256 -179.8428
1134.532035 54.012 166.2852
1142.753322 53.328 148.6846
1151.034184 53.525 137.8257
1159.375052 54.182 118.1963
1167.776361 54.201 85.2886
1176.238550 53.669 52.9580
1184.762060 53.060 36.4561
1193.347334 52.550 2.3076
1201.994821 52.247 -66.9341
1210.704971 53.029 -160.0430
1219.478238 53.786 131.0444
1228.315080 53.337 80.6167
1237.215957 52.561 71.0400
1246.181334 53.710 115.4370
1255.211678 55.743 90.2295
1264.307459 57.083 60.7153
1273.469152 57.730 34.6431
1282.697235 57.899 9.7212
1291.992188 57.905 -12.1211
1301.354495 58.172 -33.8081
1310.784647 58.300 -64.1162
1320.283132 58.131 -85.7725
1329.850448 58.866 -93.4819
1339.487093 59.856 -127.4053
1349.193569 60.092 -169.2656
1358.970381 59.371 149.1455
1368.818041 57.927 128.6099
1378.737061 57.213 137.4668
1388.727958 57.390 100.8760
1398.791253 57.679 37.9941
1408.927471 58.612 -103.5391
1419.137140 59.675 -175.6118
1429.420793 59.749 139.9731
1439.778965 59.240 111.1826
1450.212197 58.840 88.8452
1460.721033 58.613 66.2119
1471.306019 58.544 43.9429
1481.967709 58.859 32.7432
1492.706658 59.736 6.2261
1503.523426 60.227 -41.3101
1514.418576 60.187 -90.1060
1525.392678 60.132 -133.3599
1536.446302 60.321 -171.1772
1547.580025 60.224 148.7075
1558.794428 58.900 109.7329
1570.090095 56.617 85.0054
1581.467615 55.103 63.9580
1592.927581 55.047 16.8848
1604.470591 54.998 -50.8257
1616.097246 54.711 -106.8730
1627.808153 54.913 -142.0776
1639.603922 55.697 -157.9009
1651.485168 56.637 176.2900
1663.452510 56.830 139.2920
1675.506573 56.151 130.8408
1687.647984 55.136 129.7188
1699.877377 54.573 81.7832
1712.195390 54.293 1.4556
1724.602663 53.950 -69.2861
1737.099845 54.404 -106.8745
1749.687587 55.432 -142.8628
1762.366544 55.563 170.7310
1775.137379 54.401 130.3643
1788.000756 53.126 -136.6802
1800.957346 53.221 161.6772
1814.007826 55.143 -41.0195
1827.152874 57.566 -86.2461
1840.393177 58.888 -133.6768
1853.729425 58.457 177.8750
1867.162312 56.859 147.1499
1880.692540 56.792 122.1587
1894.320813 58.417 57.6724
1908.047843 59.186 -9.7129
1921.874344 58.322 -50.7920
1935.801038 56.963 -66.2563
1949.828650 56.639 -83.4390
1963.957912 57.648 -55.6377
1978.189561 58.646 -84.7061
1992.524338 58.573 -118.9219
2006.962991 58.121 -65.6299
2021.506272 57.538 -92.2075
2036.154940 56.937 -93.5576
2050.909758 56.004 -129.7017
2065.771495 54.219 175.0078
2080.740927 53.509 104.4487
2095.818833 55.585 69.2109
2111.006001 58.250 33.2588
2126.303220 59.976 -3.4175
2141.711290 60.172 -41.4771
2157.231013 58.571 -63.6699
2172.863198 56.174 -73.7100
2188.608660 53.800 -90.0112
2204.468221 53.085 16.8853
2220.442706 54.271 -7.2437
2236.532950 55.172 -33.1890
2252.739789 55.079 -46.8291
2269.064070 53.787 -87.7246
2285.506644 52.841 118.5503
2302.068367 54.246 74.9136
2318.750104 56.436 58.5713
2335.552723 57.639 33.6499
2352.477101 57.378 1.9561
2369.524119 55.791 -22.3887
2386.694668 53.614 -17.2280
2403.989641 52.618 -3.6455
2421.409941 54.115 65.6777
2438.956476 55.960 38.7881
2456.630160 56.738 -8.6035
2474.431915 57.323 -82.9189
2492.362668 58.051 -176.8643
2510.423356 58.879 129.2563
2528.614918 59.900 96.8584
2546.938304 60.826 66.9214
2565.394469 60.594 27.6934
2583.984375 59.224 78.6392
2602.708991 58.036 68.1250
2621.569293 57.517 36.7534
2640.566265 57.118 -14.6470
2659.700897 56.209 -99.7070
2678.974186 56.087 -164.7285
2698.387137 57.347 158.4668
2717.940763 58.644 123.2627
2737.636082 59.190 118.0586
2757.474121 59.361 109.4727
2777.455915 59.081 68.8408
2797.582506 58.813 12.9463
2817.854942 58.405 -98.5117
2838.274281 57.820 178.6914
2858.841586 56.757 128.0195
2879.557931 55.614 102.6719
2900.424394 54.729 57.8896
2921.442065 54.739 -106.3271
2942.612039 56.333 -114.7607
2963.935418 58.426 -179.8701
2985.413316 60.104 67.7637
3007.046852 60.638 -73.2803
3028.837153 60.034 -147.4902
3050.785356 59.153 129.0537
3072.892604 58.177 -16.3955
3095.160050 57.575 -74.3525
3117.588856 57.567 -112.0400
3140.180190 57.472 -162.5400
3162.935230 57.154 163.7646
3185.855163 57.685 156.4062
3208.941182 58.799 75.5674
3232.194493 59.300 4.7969
3255.616307 59.161 -49.4824
3279.207844 58.861 -50.9688
3302.970336 59.134 -43.3633
3326.905021 59.459 -108.0459
3351.013146 58.995 169.5674
3375.295969 58.536 111.2568
3399.754755 59.411 73.3428
3424.390779 59.756 22.9346
3449.205326 58.827 -18.7402
3474.199690 57.546 -62.3066
3499.375173 56.257 127.9980
3524.733088 55.578 63.4736
3550.274757 55.920 73.0420
3576.001511 56.721 80.6279
3601.914692 56.921 50.2139
3628.015651 56.345 24.8574
3654.305748 56.100 19.8721
3680.786354 56.339 87.5605
3707.458849 56.522 63.1973
3734.324624 56.099 37.5010
3761.385080 55.763 -20.5127
3788.641627 56.621 161.3027
3816.095686 58.261 147.6494
3843.748688 59.246 128.8438
3871.602076 59.583 108.0488
3899.657300 59.544 56.6025
3927.915825 58.799 1.0703
3956.379122 58.193 -67.5889
3985.048676 58.366 -127.5508
4013.925981 59.523 -164.3037
4043.012544 60.396 147.6387
4072.309879 60.093 89.3750
4101.819515 59.215 26.2451
4131.542990 59.232 -53.5908
4161.481854 59.888 -114.4619
4191.637667 59.707 179.0605
4222.012001 58.419 98.2422
4252.606441 57.087 -52.2568
4283.422580 56.327 112.3174
4314.462026 56.383 -19.6250
4345.726396 56.644 -83.5938
4377.217321 56.173 -151.1523
4408.936442 56.480 65.2939
4440.885413 57.715 -44.6377
4473.065899 58.207 -136.4717
4505.479579 58.114 68.7490
4538.128141 58.051 -46.7285
4571.013288 58.504 163.5195
4604.136735 59.973 48.0361
4637.500207 60.888 -29.4160
4671.105446 60.264 -109.4795
4704.954201 58.871 148.4219
4739.048239 57.843 28.9863
4773.389336 57.644 -70.8252
4807.979283 58.609 64.8877
4842.819883 59.802 -40.6758
4877.912952 60.575 -163.3604
4913.260320 60.738 102.3604
4948.863830 60.445 13.0439
4984.725337 59.578 -99.2314
5020.846712 58.203 132.4570
5057.229836 56.653 -109.2227
5093.876609 55.992 172.7930
5130.788938 56.817 94.5557
5167.968750 58.592 -69.2402
5205.417982 59.910 -178.1309
5243.138586 60.075 69.2158
5281.132530 59.609 -31.2041
5319.401793 59.561 -95.3867
5357.948371 59.414 -145.9150
5396.774274 59.051 164.8154
5435.881525 59.276 89.8027
5475.272163 60.467 -10.9199
5514.948243 61.524 -85.7822
5554.911831 61.513 -155.6328
5595.165012 60.955 145.7246
5635.709884 61.453 100.2646
5676.548561 62.982 17.8496
5717.683172 63.772 -66.4932
5759.115861 63.373 -150.8652
5800.848789 62.249 134.4834
5842.884130 61.679 95.5508
5885.224077 62.002 19.6982
5927.870837 61.721 -64.7539
5970.826633 60.904 -147.4746
6014.093704 60.353 132.7188
6057.674306 61.056 100.2705
6101.570711 62.393 16.6826
6145.785208 62.717 -85.3184
6190.320101 61.918 -178.9736
6235.177712 61.498 122.0400
6280.360380 62.380 54.3682
6325.870460 62.739 -36.8145
6371.710325 62.050 -122.5859
6417.882365 60.572 160.7227
6464.388986 59.055 91.2119
6511.232613 58.429 18.2158
6558.415689 58.526 -63.1113
6605.940673 58.566 -147.1367
6653.810042 58.315 134.5391
6702.026292 58.772 85.1113
6750.591937 59.860 -9.2715
6799.509509 60.030 -117.5840
6848.781558 59.269 148.9531
6898.410653 58.440 66.5977
6948.399380 58.116 5.3750
6998.750346 58.694 -88.8164
7049.466176 58.767 169.7676
7100.549514 57.784 103.4355
7152.003023 56.923 36.4004
7203.829385 56.420 -99.1973
7256.031302 56.282 163.9629
7308.611496 56.739 137.6445
7361.572708 57.308 108.5273
7414.917698 57.657 -34.8711
7468.649249 57.909 -131.8867
7522.770160 57.833 164.6094
7577.283253 58.036 95.4121
7632.191371 58.162 -17.9629
7687.497376 57.232 -104.4551
7743.204151 56.050 -165.3418
7799.314600 55.814 101.2305
7855.831649 55.888 -15.1699
7912.758244 55.522 -112.8066
7970.097352 55.279 136.6953
8027.851962 55.520 31.6035
8086.025087 55.390 -81.0293
8144.619758 54.652 163.2207
8203.639030 54.369 82.9844
8263.085980 54.411 12.1055
8322.963708 54.745 -55.6445
8383.275334 55.602 -150.5430
8444.024002 56.409 108.8672
8505.212881 56.821 -2.0488
8566.845160 56.736 -112.7734
8628.924051 56.462 149.4805
8691.452792 56.315 26.6133
8754.434642 55.799 -95.1758
8817.872884 54.755 163.5859
8881.770826 54.091 57.6270
8946.131799 53.904 -52.8906
9010.959157 53.616 -159.8691
9076.256282 53.613 166.6309
9142.026576 53.622 53.4512
9208.273470 53.169 -65.8320
9275.000415 53.407 174.8457
9342.210891 53.960 62.9355
9409.908403 53.905 -30.9629
9478.096478 53.835 -126.5977
9546.778672 53.878 120.6406
9615.958566 54.280 21.5156
9685.639765 54.744 -89.5098
9755.825904 54.365 149.5312
9826.520640 53.497 15.6523
9897.727659 52.839 -112.6934
9969.450674 53.136 121.1270
10041.693423 54.452 0.9297
10114.459673 55.467 -119.4883
10187.753217 55.566 110.2910
10261.577877 55.237 -13.8457
10335.937500 54.294 -84.6152
10410.835964 53.281 157.3496
10486.277173 52.590 23.9453
10562.265060 52.888 -118.4492
10638.803587 53.525 80.8730
10715.896743 53.189 -69.1406
10793.548548 52.557 -179.4004
10871.763050 52.318 61.7422
10950.544327 51.924 -36.0664
11029.896485 51.282 -138.6074
11109.823662 50.509 98.2266
11190.330024 50.071 -5.6016
11271.419768 50.572 -143.9551
11353.097122 52.049 77.1406
11435.366344 53.054 -76.6445
11518.231722 53.102 140.3613
11601.697577 53.330 19.5586
11685.768261 53.680 -129.8535
11770.448155 53.310 84.2402
11855.741674 52.975 -55.9180
11941.653265 53.151 159.4902
12028.187408 53.467 14.0312
12115.348612 53.132 -135.1367
12203.141422 52.178 77.3359
12291.570415 51.507 -64.0293
12380.640201 51.634 146.3945
12470.355424 52.573 -10.0293
12560.720760 53.599 -170.3926
12651.740920 54.419 45.8613
12743.420650 54.732 -104.0859
12835.764729 53.805 98.9824
12928.777972 52.192 -55.5312
13022.465227 50.688 145.4473
13116.831378 50.016 -13.0605
13211.881345 49.917 179.2012
13307.620084 49.796 16.1973
13404.052584 50.045 -129.8711
13501.183875 50.319 93.2734
13599.019019 50.279 -60.4980
13697.563116 49.974 140.3262
13796.821305 49.638 -24.9668
13896.798760 49.034 159.8477
13997.500692 48.546 4.8633
14098.932352 48.077 -149.0215
14201.099028 47.862 55.5898
14304.006046 48.236 -118.1738
14407.658770 48.602 60.2891
14512.062604 48.261 -124.7109
14617.222992 47.389 56.4258
14723.145416 46.345 -103.7441
14829.835397 45.736 90.5996
14937.298497 45.412 -83.5371
15045.540320 45.893 115.5957
15154.566507 46.844 -69.1191
15264.382743 47.100 104.5859
15374.994752 46.717 -75.5840
15486.408302 46.158 97.1562
15598.629201 45.230 -95.0879
15711.663298 44.875 79.3809
15825.516487 45.475 -111.3848
15940.194703 45.505 51.1738
16055.703925 44.195 -142.9922
16172.050174 42.430 22.8906
16289.239516 41.466 170.7500
16407.278061 41.180 -40.4590
16526.171961 41.522 117.2930
16645.927415 42.693 -135.9141
16766.550667 43.562 -101.3223
16888.048005 43.854 34.1465
17010.425762 43.858 172.4590
17133.690320 43.646 -50.9980
17257.848103 42.996 92.2520
17382.905584 41.942 -108.1152
17508.869284 41.270 51.4023
17635.745768 41.199 -159.9336
17763.541652 41.206 -16.7559
17892.263597 40.832 123.7266
18021.918315 39.768 -90.6641
18152.512564 38.640 57.0195
18284.053153 37.774 -160.9648
18416.546939 36.920 -10.6543
18550.000830 36.145 138.4258
18684.421783 35.550 -78.2480
18819.816805 35.045 55.8711
18956.192956 34.712 -169.8477
19093.557344 34.812 -20.7383
19231.917131 34.851 117.4785
19371.279531 34.231 -107.1367
19511.651807 33.201 19.0020
19653.041280 31.729 136.3027
19795.455318 30.331 -99.2617
19938.901348 29.561 31.0449
