* Measurement data measured by REW V5.31
* Source: Scarlett 2i4 USB, MICROPHONE, R, volume: no control. Timing signal peak level -30.8 dBFS, measurement signal peak level -23.5 dBFS
* Format: 512k Log Swept Sine, 1 sweep at -18.0 dBFS using an acoustic timing reference
* Dated: Apr 16, 2024 10:06:50 AM
* REW Settings:
*  C-weighting compensation: Off
*  Target level: 75.0 dB
* Note: ; Delay -3.8215 ms (-1.311 m, -(4 ft 3.6 in)) using IR start time relative to Acoustic reference played from SPEAKER L with no timing offset
* Measurement: screen-p1-rl
* Smoothing: 1/48 octave
* Frequency Step: 96 ppo
* Start Frequency: 10.093689 Hz
*
* Freq(Hz) SPL(dB) Phase(degrees)
10.093689 23.679 -40.1575
10.166832 23.629 -45.6921
10.240505 23.567 -51.6030
10.314712 23.502 -57.6161
10.389457 23.424 -63.4164
10.464743 23.286 -68.8067
10.540575 23.056 -74.4994
10.616956 22.752 -80.5041
10.693891 22.358 -86.5159
10.771383 21.863 -92.0771
10.849437 21.294 -97.4854
10.928057 20.637 -103.2653
11.007246 19.810 -109.2445
11.087009 18.703 -114.8993
11.167350 17.146 -119.7676
11.248273 15.111 -124.5125
11.329783 12.944 -129.0751
11.411883 11.148 -132.4421
11.494578 10.137 -130.3522
11.577873 9.831 -99.4975
11.661771 10.110 -19.5813
11.746277 10.932 -5.9007
11.831395 12.370 -6.9801
11.917130 14.417 -11.3378
12.003487 16.613 -16.3713
12.090469 18.500 -21.5980
12.178081 19.861 -27.4776
12.266329 20.866 -34.1655
12.355216 21.651 -40.8108
12.444747 22.320 -47.0956
12.534926 22.894 -53.7224
12.625760 23.343 -60.9574
12.717251 23.684 -68.0926
12.809406 23.939 -74.7673
12.902228 24.104 -81.9875
12.995723 24.175 -89.6576
13.089895 24.154 -97.1118
13.184750 24.045 -104.2416
13.280292 23.845 -112.1393
13.376526 23.545 -120.3651
13.473458 23.134 -128.1715
13.571093 22.615 -136.3362
13.669434 21.978 -145.4274
13.768489 21.199 -154.8297
13.868261 20.239 -164.2030
13.968756 19.100 -175.3083
14.069979 17.896 171.5354
14.171936 16.724 156.9052
14.274632 15.522 137.7267
14.378072 14.539 111.3961
14.482261 14.210 82.5750
14.587206 14.756 55.1909
14.692910 15.831 32.4070
14.799381 16.971 16.3323
14.906624 18.018 3.8423
15.014643 19.028 -7.2134
15.123446 19.908 -16.1587
15.233036 20.592 -23.5676
15.343421 21.116 -30.6426
15.454606 21.522 -36.7332
15.566596 21.828 -41.6523
15.679398 22.035 -46.1250
15.793018 22.194 -49.8965
15.907460 22.333 -52.6738
16.022732 22.455 -54.7592
16.138840 22.617 -56.4397
16.255788 22.851 -57.6187
16.373585 23.150 -58.3854
16.492234 23.511 -59.4289
16.611744 23.945 -60.7303
16.732119 24.422 -62.2619
16.853367 24.893 -64.4475
16.975494 25.351 -67.2524
17.098505 25.771 -70.4656
17.222408 26.117 -74.1400
17.347209 26.389 -78.4210
17.472914 26.569 -82.8972
17.599530 26.644 -87.6104
17.727063 26.610 -92.7745
17.855521 26.454 -97.7974
17.984909 26.171 -103.0449
18.115235 25.747 -108.4191
18.246506 25.166 -113.3843
18.378727 24.420 -118.4233
18.511907 23.471 -123.0587
18.646052 22.299 -126.9088
18.781169 20.875 -129.9838
18.917265 19.106 -131.2916
19.054347 17.003 -129.1637
19.192423 15.084 -121.9674
19.331499 13.694 -105.4757
19.471583 13.112 -83.0063
19.612682 13.725 -67.5396
19.754804 15.150 -60.4848
19.897956 16.393 -58.8558
20.042144 17.248 -61.0139
20.187378 17.750 -64.5795
20.333664 17.880 -69.5543
20.481010 17.623 -75.6777
20.629424 16.949 -82.0475
20.778913 15.823 -90.2760
20.929486 14.098 -99.1428
21.081150 11.837 -113.5826
21.233912 10.785 -149.1057
21.387782 11.995 108.9294
21.542767 14.310 80.6547
21.698874 16.950 67.0161
21.856113 19.421 57.2125
22.014492 21.286 48.2640
22.174018 22.725 39.9808
22.334700 23.861 32.1138
22.496546 24.716 24.3616
22.659566 25.340 17.1850
22.823766 25.742 10.0499
22.989157 25.946 3.7320
23.155745 25.958 -2.3203
23.323542 25.799 -7.2524
23.492554 25.483 -11.3967
23.662790 25.054 -14.0364
23.834261 24.556 -15.1436
24.006973 24.096 -14.5006
24.180938 23.737 -11.9960
24.356163 23.594 -8.3619
24.532658 23.669 -3.7987
24.710431 23.941 0.8438
24.889493 24.386 5.6862
25.069853 24.977 10.7990
25.251519 25.777 16.1887
25.434502 26.843 21.8044
25.618811 28.175 26.3423
25.804456 29.741 29.6036
25.991445 31.388 30.3425
26.179790 33.035 29.3306
26.369500 34.570 26.2550
26.560584 35.961 21.9988
26.753053 37.174 16.5739
26.946917 38.201 10.6212
27.142185 39.035 4.0778
27.338869 39.679 -2.4262
27.536977 40.133 -9.0657
27.736522 40.404 -15.2130
27.937512 40.505 -20.9007
28.139959 40.453 -25.7230
28.343872 40.295 -29.4078
28.549264 40.081 -31.7623
28.756143 39.914 -32.6606
28.964522 39.870 -32.4343
29.174411 40.024 -31.4880
29.385821 40.360 -30.8959
29.598763 40.829 -30.9727
29.813248 41.328 -32.2050
30.029287 41.780 -34.3015
30.246891 42.138 -37.1316
30.466073 42.374 -40.2234
30.686842 42.496 -43.2878
30.909212 42.520 -46.1174
31.133193 42.486 -48.4445
31.358797 42.431 -50.3564
31.586035 42.382 -51.8798
31.814921 42.353 -53.3226
32.045465 42.322 -54.8134
32.277680 42.258 -56.4449
32.511577 42.114 -58.0859
32.747169 41.869 -59.2904
32.984469 41.532 -59.6461
33.223488 41.162 -58.4186
33.464239 40.920 -55.2677
33.706735 40.961 -50.6166
33.950987 41.397 -45.6094
34.197010 42.159 -42.1039
34.444816 43.066 -40.7800
34.694417 43.967 -41.4329
34.945827 44.752 -43.5894
35.199059 45.386 -46.4860
35.454126 45.885 -49.5862
35.711041 46.281 -52.5708
35.969818 46.623 -55.2010
36.230470 46.965 -57.5036
36.493011 47.333 -59.7440
36.757455 47.725 -62.1729
37.023814 48.116 -65.0043
37.292104 48.463 -68.3446
37.562338 48.726 -72.0446
37.834530 48.882 -75.8466
38.108695 48.930 -79.4830
38.384846 48.888 -82.6787
38.662999 48.794 -85.2025
38.943167 48.700 -87.0225
39.225365 48.648 -88.3284
39.509608 48.655 -89.4015
39.795911 48.712 -90.5050
40.084289 48.793 -91.7819
40.374756 48.870 -93.1978
40.667328 48.939 -94.5887
40.962020 49.019 -95.8360
41.258848 49.138 -97.0052
41.557827 49.314 -98.3470
41.858972 49.533 -100.1882
42.162299 49.754 -102.7746
42.467824 49.916 -106.1562
42.775564 49.964 -110.1657
43.085533 49.859 -114.4661
43.397749 49.584 -118.6200
43.712227 49.153 -122.1649
44.028983 48.602 -124.7078
44.348036 47.995 -126.0167
44.669400 47.399 -126.1025
44.993093 46.869 -125.2175
45.319131 46.427 -123.7083
45.647532 46.069 -121.8102
45.978313 45.788 -119.5742
46.311491 45.591 -116.9827
46.647083 45.497 -114.1249
46.985107 45.515 -111.2474
47.325581 45.629 -108.6211
47.668521 45.811 -106.3737
48.013947 46.034 -104.4642
48.361876 46.289 -102.8032
48.712326 46.575 -101.3764
49.065315 46.887 -100.2516
49.420863 47.208 -99.4734
49.778987 47.521 -98.9601
50.139706 47.823 -98.5098
50.503039 48.136 -97.9241
50.869005 48.499 -97.1658
51.237623 48.950 -96.4487
51.608912 49.496 -96.1735
51.982891 50.111 -96.7477
52.359580 50.746 -98.4434
52.739000 51.344 -101.3704
53.121168 51.846 -105.5075
53.506106 52.197 -110.7190
53.893833 52.344 -116.7618
54.284370 52.239 -123.2604
54.677737 51.850 -129.6732
55.073955 51.165 -135.2861
55.473043 50.211 -139.2321
55.875024 49.075 -140.6128
56.279917 47.920 -138.8083
56.687745 46.958 -134.0889
57.098527 46.360 -127.8204
57.512287 46.163 -121.5868
57.929045 46.294 -116.3922
58.348822 46.645 -112.7719
58.771642 47.095 -110.9929
59.197525 47.529 -110.9893
59.626495 47.866 -112.4246
60.058573 48.062 -114.9473
60.493782 48.087 -118.3580
60.932145 47.899 -122.6088
61.373685 47.431 -127.6591
61.818424 46.581 -133.2114
62.266386 45.226 -138.4824
62.717593 43.246 -141.9082
63.172071 40.625 -139.3389
63.629842 38.071 -114.6391
64.090930 37.823 -50.5562
64.555359 40.159 -23.6799
65.023154 42.944 -15.0333
65.494339 45.426 -12.1895
65.968938 47.497 -12.6052
66.446976 49.180 -14.6259
66.928478 50.579 -16.8331
67.413469 51.833 -18.6166
67.901975 53.028 -20.4563
68.394021 54.135 -23.2186
68.889632 55.066 -26.9911
69.388835 55.784 -30.9257
69.891655 56.355 -33.9959
70.398118 56.924 -35.7933
70.908252 57.587 -37.0200
71.422083 58.318 -38.7509
71.939636 59.039 -41.2200
72.460941 59.717 -43.9676
72.986023 60.381 -46.7285
73.514909 61.050 -49.8549
74.047629 61.673 -53.8505
74.584208 62.167 -58.7344
75.124676 62.478 -63.9480
75.669061 62.607 -68.8849
76.217390 62.590 -73.1425
76.769692 62.458 -76.5494
77.325997 62.247 -78.8233
77.886333 62.030 -79.4960
78.450730 61.934 -78.5027
79.019216 62.058 -76.7172
79.591822 62.384 -75.4337
80.168577 62.814 -75.0475
80.749512 63.291 -75.1411
81.334656 63.828 -75.3767
81.924040 64.442 -76.0737
82.517696 65.094 -77.7903
83.115653 65.705 -80.7188
83.717943 66.208 -84.5427
84.324598 66.582 -88.6977
84.935649 66.848 -92.7365
85.551128 67.041 -96.5157
86.171066 67.184 -100.1174
86.795497 67.280 -103.5170
87.424453 67.355 -106.3915
88.057967 67.483 -108.5159
88.696071 67.738 -110.3842
89.338800 68.112 -113.0470
89.986185 68.502 -117.1445
90.638262 68.800 -122.4662
91.295065 68.956 -128.3745
91.956626 68.979 -134.3262
92.622982 68.905 -140.1123
93.294166 68.765 -145.8435
93.970214 68.562 -151.7363
94.651161 68.279 -157.8591
95.337042 67.900 -164.0859
96.027894 67.426 -170.2915
96.723752 66.868 -176.5249
97.424652 66.219 177.0415
98.130631 65.457 170.2952
98.841726 64.552 163.2695
99.557974 63.482 156.0464
100.279412 62.236 148.5994
101.006078 60.800 140.7970
101.738010 59.176 132.4047
102.475245 57.408 122.5388
103.217823 55.579 108.9282
103.965782 53.787 88.4696
104.719161 52.204 59.7960
105.477999 51.195 28.9836
106.242336 51.160 7.2051
107.012212 52.147 -3.0540
107.787666 53.790 -6.8013
108.568740 55.635 -9.2870
109.355474 57.402 -12.3635
110.147909 59.012 -15.7379
110.946086 60.481 -19.1929
111.750047 61.818 -22.9189
112.559834 63.013 -27.0577
113.375489 64.046 -31.6595
114.197055 64.900 -36.4680
115.024574 65.607 -40.8074
115.858089 66.256 -44.1869
116.697645 66.935 -46.9292
117.543284 67.657 -49.9460
118.395051 68.353 -53.9047
119.252990 68.941 -58.7350
120.117147 69.382 -63.8214
120.987565 69.703 -68.5341
121.864291 69.965 -72.6151
122.747370 70.224 -76.2262
123.636848 70.505 -79.8429
124.532771 70.781 -83.9370
125.435187 71.012 -88.5155
126.344142 71.182 -93.4138
127.259684 71.273 -98.9045
128.181860 71.233 -105.1499
129.110718 71.017 -111.8412
130.046308 70.593 -118.9058
130.988677 69.896 -126.3368
131.937875 68.852 -133.3958
132.893951 67.424 -138.9631
133.856956 65.611 -142.1421
134.826938 63.422 -141.6659
135.803950 60.975 -135.1007
136.788041 59.000 -114.7109
137.779264 59.417 -63.7484
138.777669 62.063 -35.0771
139.783309 64.852 -31.7621
140.796237 67.096 -35.5768
141.816504 68.781 -41.7319
142.844165 70.002 -48.5427
143.879273 70.857 -55.1603
144.921881 71.434 -61.1772
145.972045 71.822 -66.1750
147.029819 72.120 -70.0441
148.095257 72.391 -73.4065
149.168417 72.636 -76.7244
150.249353 72.866 -79.7179
151.338121 73.114 -82.6359
152.434780 73.340 -86.4956
153.539385 73.415 -91.7770
154.651995 73.207 -97.7983
155.772667 72.671 -102.7191
156.901460 71.923 -104.6375
158.038432 71.174 -103.6603
159.183644 70.545 -101.6257
160.337154 70.046 -98.4663
161.499023 69.814 -92.3776
162.669312 70.086 -84.4783
163.848081 70.838 -78.5526
165.035392 71.771 -76.6250
166.231306 72.608 -77.7974
167.435887 73.275 -79.8774
168.649196 73.845 -81.7513
169.871298 74.389 -83.7611
171.102255 74.924 -86.3300
172.342133 75.435 -89.5863
173.590995 75.861 -94.1466
174.848907 76.092 -100.1041
176.115934 76.051 -106.4023
177.392143 75.761 -111.6488
178.677599 75.328 -115.1747
179.972371 74.873 -117.1727
181.276525 74.504 -117.8171
182.590129 74.323 -117.6118
183.913252 74.328 -118.3977
185.245964 74.347 -121.6112
186.588332 74.164 -126.6508
187.940428 73.660 -131.9496
189.302322 72.815 -136.0757
190.674085 71.684 -137.7094
192.055788 70.430 -135.0369
193.447503 69.430 -126.6500
194.849303 69.201 -114.6233
196.261262 69.948 -103.4951
197.683452 71.317 -97.4733
199.115948 72.729 -98.7408
200.558824 73.744 -105.9949
202.012156 74.146 -116.2537
203.476019 73.902 -126.3635
204.950490 73.121 -133.6490
206.435646 72.063 -136.0544
207.931564 71.192 -132.4408
209.438322 71.052 -125.5050
210.955998 71.685 -122.1306
212.484672 72.522 -126.2788
214.024424 72.980 -136.8738
215.575333 72.752 -150.7281
217.137481 71.744 -164.5746
218.710948 70.009 -176.1896
220.295818 67.654 173.7545
221.892172 64.858 164.0231
223.500094 62.820 -165.6794
225.119668 63.750 -58.3262
226.750978 66.056 -69.1283
228.394109 67.877 -82.4027
230.049147 68.924 -96.1282
231.716178 69.312 -108.6804
233.395289 69.261 -119.0690
235.086567 68.929 -128.7480
236.790102 68.281 -139.2025
238.505980 67.209 -149.6777
240.234293 65.642 -159.5020
241.975130 63.546 -167.5387
243.728581 61.323 -162.2168
245.494739 60.724 -112.9281
247.273695 62.092 -104.4895
249.065542 63.346 -119.7526
250.870374 63.849 -137.6652
252.688284 63.811 -156.3562
254.519367 63.219 -179.0763
256.363720 61.816 156.3884
258.221437 59.729 141.6223
260.092616 58.294 145.9515
261.977354 58.705 139.6206
263.875750 59.987 124.9402
265.787903 61.517 113.0066
267.713911 63.132 102.3578
269.653877 64.608 90.8722
271.607900 65.919 80.8583
273.576083 67.059 70.9050
275.558528 67.874 59.6915
277.555338 68.318 49.4087
279.566619 68.422 40.1882
281.592474 68.182 32.5579
283.633009 67.742 28.9626
285.688331 67.516 30.8925
287.758546 68.051 38.1560
289.843763 69.366 43.2238
291.944090 70.766 39.1259
294.059638 71.669 28.7872
296.190515 71.910 17.1564
298.336833 71.572 7.4171
300.498705 70.852 0.9609
302.676243 70.077 -0.2273
304.869559 69.749 3.6919
307.078770 69.936 3.3644
309.303989 70.004 -4.7926
311.545334 69.411 -15.8475
313.802919 68.002 -24.4105
316.076865 65.940 -25.1010
318.367288 63.975 -12.9597
320.674309 63.900 19.2194
322.998047 66.053 47.7065
325.338624 68.278 43.5801
327.696162 69.396 26.1636
330.070783 69.149 6.2972
332.462612 67.621 -9.0957
334.871773 65.417 -7.3654
337.298392 64.544 50.5048
339.742595 66.044 67.4413
342.204510 68.096 63.3622
344.684265 69.929 58.3026
347.181989 71.245 47.8213
349.697813 71.705 32.4833
352.231868 71.231 18.4960
354.784285 70.124 11.7708
357.355198 69.045 14.4252
359.944741 68.489 16.6039
362.553049 68.159 13.5160
365.180258 67.765 12.1249
367.826505 67.422 12.0271
370.491927 67.059 8.5079
373.176665 66.765 10.5868
375.880856 67.019 16.5784
378.604644 67.386 9.1694
381.348169 67.173 -2.9429
384.111575 66.464 -12.2098
386.895006 65.541 -23.0261
389.698607 64.157 -40.8796
392.522524 61.771 -59.5765
395.366904 58.344 -42.4133
398.231895 55.012 21.0162
401.117648 53.748 30.6213
404.024312 54.734 55.0471
406.952038 55.939 51.6068
409.900981 55.950 37.2491
412.871292 55.101 33.3976
415.863128 54.205 28.4899
418.876643 53.377 18.4231
421.911996 52.606 0.3718
424.969344 52.027 -31.9867
428.048847 52.942 -72.1090
431.150666 55.812 -104.6307
434.274961 58.718 -132.4481
437.421897 60.532 -162.5629
440.591636 61.145 169.9258
443.784345 60.843 147.8470
447.000189 59.814 129.7437
450.239337 58.093 116.2244
453.501956 56.032 120.5061
456.788219 55.016 150.7838
460.098294 55.343 151.7509
463.432356 55.347 138.7697
466.790578 54.425 131.8402
470.173135 53.318 142.7767
473.580203 52.477 140.8092
477.011961 51.148 128.8079
480.468586 49.835 144.4489
483.950259 50.720 -130.1125
487.457163 52.893 -134.0541
490.989478 54.429 -147.5969
494.547390 54.807 -163.0430
498.131084 54.096 -174.6818
501.740748 52.876 -174.4673
505.376568 52.517 -148.2393
509.038735 53.440 -137.9042
512.727439 54.159 -147.0380
516.442874 53.960 -157.3292
520.185232 53.531 -150.9978
523.954708 54.386 -126.8623
527.751500 56.246 -123.6188
531.575805 57.865 -133.0442
535.427822 58.691 -148.8971
539.307753 58.768 -164.3750
543.215800 59.008 -159.6458
547.152165 60.139 -151.6799
551.117055 60.945 -170.8008
555.110677 60.594 167.5605
559.133237 59.433 156.2969
563.184947 58.416 154.2562
567.266018 58.139 152.2606
571.376661 58.552 150.7555
575.517092 59.482 148.4326
579.687526 60.442 140.1187
583.888181 61.087 130.1982
588.119275 61.507 122.3781
592.381030 61.659 112.5846
596.673667 61.881 111.1880
600.997410 63.187 117.4849
605.352485 65.331 117.3784
609.739119 67.122 103.1196
614.157540 67.822 80.2152
618.607979 67.377 57.6073
623.090667 65.988 37.7346
627.605839 63.716 21.1005
632.153730 60.811 22.5568
636.734576 59.101 82.6547
641.348617 59.906 93.3635
645.996094 61.037 83.4015
650.677248 61.599 75.0704
655.392323 62.049 73.1272
660.141566 62.795 69.9944
664.925224 63.991 66.7635
669.743546 65.790 64.1067
674.596784 67.482 46.5984
679.485191 68.244 16.7474
684.409020 67.726 -20.0573
689.368530 65.730 -60.4045
694.363979 62.345 -107.2732
699.395626 58.972 99.7810
704.463736 58.803 67.5601
709.568570 60.999 49.4402
714.710396 63.058 28.4199
719.889483 64.194 3.1113
725.106099 64.649 -18.2939
730.360516 64.941 -36.7502
735.653010 65.139 -54.9209
740.983855 64.993 -75.4385
746.353329 64.023 -96.5364
751.761713 62.256 -104.1580
757.209288 61.048 -91.5603
762.696339 61.321 -89.8098
768.223151 61.764 -101.2603
773.790013 62.028 -104.8628
779.397214 62.787 -105.1030
785.045047 63.304 -121.6885
790.733808 62.747 -143.1460
796.463791 61.214 -156.9590
802.235296 60.257 -136.8240
808.048623 61.261 -122.2898
813.904077 62.217 -141.5881
819.801961 62.262 -161.4597
825.742584 62.189 -176.5378
831.726255 62.106 162.6243
837.753287 61.522 139.0083
843.823992 60.446 114.5916
849.938689 58.690 86.3992
856.097695 56.050 59.0195
862.301332 53.213 66.2151
868.549922 52.505 161.2717
874.843793 54.393 139.9001
881.183272 57.369 135.5461
887.568689 60.636 173.9563
894.000378 63.080 144.4263
900.478673 64.066 102.2261
907.003913 63.481 58.7842
913.576437 61.605 15.2634
920.196588 59.312 -40.7603
926.864712 57.578 -138.0645
933.581156 56.260 158.3083
940.346270 56.046 132.6511
947.160407 57.726 138.0588
954.023921 59.773 123.7664
960.937172 60.762 91.1108
967.900519 60.783 60.6067
974.914325 60.390 32.6548
981.978956 59.489 2.5183
989.094780 58.151 -12.6157
996.262169 57.719 37.8391
1003.481495 58.468 27.9155
1010.753136 59.838 15.1848
1018.077470 61.684 4.5469
1025.454879 63.189 -15.5068
1032.885748 63.593 -42.5269
1040.370463 62.779 -66.6790
1047.909417 61.755 -81.6216
1055.503000 61.824 -100.2029
1063.151610 62.352 -136.3625
1070.855645 62.071 175.8530
1078.615506 61.277 135.1758
1086.431599 61.015 103.2988
1094.304330 60.781 73.9617
1102.234110 59.939 51.1641
1110.221353 58.314 32.4824
1118.266475 56.037 24.4873
1126.369895 54.091 58.0928
1134.532035 53.637 78.6123
1142.753322 53.984 59.5671
1151.034184 54.727 47.6743
1159.375052 56.112 -89.7344
1167.776361 58.014 -148.5042
1176.238550 59.765 179.2561
1184.762060 60.564 150.9265
1193.347334 60.383 123.3271
1201.994821 59.194 90.2751
1210.704971 57.899 22.1213
1219.478238 58.033 -127.1406
1228.315080 58.715 -165.5061
1237.215957 59.103 161.0938
1246.181334 58.946 115.1709
1255.211678 58.442 16.3501
1264.307459 58.121 -85.5107
1273.469152 57.270 -138.2925
1282.697235 55.290 -175.9487
1291.992188 53.981 132.3496
1301.354495 55.340 54.5986
1310.784647 56.946 6.0371
1320.283132 57.432 -30.4312
1329.850448 57.286 6.1914
1339.487093 57.157 23.4336
1349.193569 56.530 5.6646
1358.970381 55.681 7.3477
1368.818041 55.444 16.4707
1378.737061 55.200 14.9941
1388.727958 55.086 28.4883
1398.791253 55.740 37.3105
1408.927471 55.972 31.3740
1419.137140 55.815 49.1714
1429.420793 56.533 33.0791
1439.778965 57.510 -42.8223
1450.212197 58.556 -138.3398
1460.721033 59.605 176.4531
1471.306019 59.683 144.3491
1481.967709 58.963 154.0693
1492.706658 58.819 163.5210
1503.523426 59.474 130.2266
1514.418576 60.158 42.9722
1525.392678 60.498 -61.5498
1536.446302 60.223 -98.9946
1547.580025 60.033 -106.2339
1558.794428 60.118 -122.1235
1570.090095 59.976 -127.6963
1581.467615 60.304 -84.7158
1592.927581 60.024 -111.9346
1604.470591 58.718 -18.3877
1616.097246 58.013 -13.3228
1627.808153 58.140 -25.0322
1639.603922 58.591 -18.2944
1651.485168 58.759 -46.2861
1663.452510 58.223 -143.1528
1675.506573 58.457 99.2788
1687.647984 59.295 72.5845
1699.877377 59.893 90.1221
1712.195390 59.810 82.1836
1724.602663 58.550 76.4912
1737.099845 57.279 97.7261
1749.687587 56.688 102.0234
1762.366544 56.075 103.5420
1775.137379 55.325 103.0532
1788.000756 54.535 81.2354
1800.957346 53.900 16.8926
1814.007826 55.475 -51.5449
1827.152874 58.489 -67.6797
1840.393177 60.428 -92.2173
1853.729425 60.784 -118.3545
1867.162312 60.086 -147.5288
1880.692540 58.504 72.1377
1894.320813 57.067 -21.7622
1908.047843 56.495 -30.5903
1921.874344 57.030 -17.9824
1935.801038 58.144 -23.5884
1949.828650 58.683 -53.5703
1963.957912 58.513 87.2979
1978.189561 58.038 53.9331
1992.524338 56.946 36.7900
2006.962991 56.402 27.7764
2021.506272 58.033 2.5552
2036.154940 60.208 -78.3945
2050.909758 60.945 -142.9668
2065.771495 60.488 -177.0825
2080.740927 59.598 168.7124
2095.818833 58.768 170.7275
2111.006001 58.286 154.3896
2126.303220 57.761 125.1255
2141.711290 57.078 88.6978
2157.231013 57.094 74.3770
2172.863198 58.012 46.2144
2188.608660 58.495 18.5566
2204.468221 58.723 5.5596
2220.442706 58.786 -4.8438
2236.532950 58.252 -12.7114
2252.739789 57.123 -29.6309
2269.064070 55.912 -49.2432
2285.506644 55.511 -74.0127
2302.068367 55.889 -140.0098
2318.750104 57.226 -118.6826
2335.552723 59.100 -133.8540
2352.477101 59.800 -163.0098
2369.524119 59.648 -157.6479
2386.694668 59.759 -154.4038
2403.989641 59.811 -178.5845
2421.409941 59.057 143.7612
2438.956476 57.977 89.4771
2456.630160 57.017 25.0522
2474.431915 55.612 -5.8545
2492.362668 54.497 21.1768
2510.423356 54.557 31.3892
2528.614918 54.981 25.3784
2546.938304 55.040 15.1812
2565.394469 55.351 12.0005
2583.984375 55.449 -39.5840
2602.708991 55.318 129.8872
2621.569293 55.955 72.9165
2640.566265 57.014 19.8413
2659.700897 58.495 -20.4014
2678.974186 59.749 -58.7002
2698.387137 59.667 -92.6655
2717.940763 58.552 -115.4370
2737.636082 57.848 -137.3149
2757.474121 58.515 -140.5381
2777.455915 59.611 -172.1191
2797.582506 59.940 141.0537
2817.854942 59.735 120.9707
2838.274281 59.177 112.5352
2858.841586 57.851 100.0356
2879.557931 56.892 126.1748
2900.424394 57.087 130.1655
2921.442065 56.794 102.4302
2942.612039 55.722 25.3140
2963.935418 55.651 -18.7808
2985.413316 57.395 -29.2241
3007.046852 58.899 -44.4390
3028.837153 59.127 -27.5171
3050.785356 58.645 -22.3950
3072.892604 57.593 -54.7363
3095.160050 56.326 -107.2383
3117.588856 56.718 -168.4746
3140.180190 58.418 161.0127
3162.935230 59.316 134.5474
3185.855163 58.973 114.7344
3208.941182 58.178 100.5527
3232.194493 57.684 114.0610
3255.616307 58.417 101.7397
3279.207844 59.300 19.5493
3302.970336 59.592 59.3809
3326.905021 60.163 47.6143
3351.013146 60.431 17.9473
3375.295969 60.035 -18.2271
3399.754755 59.424 -88.5273
3424.390779 58.747 -160.2949
3449.205326 58.399 175.7070
3474.199690 58.495 -167.7549
3499.375173 58.042 -164.1650
3524.733088 56.747 -154.5708
3550.274757 56.083 -119.7188
3576.001511 56.790 -101.1855
3601.914692 57.706 164.8926
3628.015651 58.452 74.2515
3654.305748 58.748 56.1533
3680.786354 58.525 65.9971
3707.458849 58.623 82.6685
3734.324624 58.472 66.9053
3761.385080 57.672 21.5264
3788.641627 57.198 -103.6084
3816.095686 58.011 -55.3936
3843.748688 59.380 -81.2412
3871.602076 59.794 -112.0469
3899.657300 58.955 37.2998
3927.915825 57.573 12.3369
3956.379122 56.527 -18.7632
3985.048676 56.858 166.9922
4013.925981 58.628 162.8560
4043.012544 59.908 148.2349
4072.309879 59.682 127.4673
4101.819515 59.096 110.4756
4131.542990 59.665 42.2095
4161.481854 60.803 -9.6035
4191.637667 61.583 -42.7837
4222.012001 60.614 -78.3789
4252.606441 58.297 -119.9531
4283.422580 57.552 -173.7090
4314.462026 59.470 170.3125
4345.726396 61.029 147.9155
4377.217321 60.879 123.2300
4408.936442 59.533 88.6685
4440.885413 58.393 21.3359
4473.065899 58.451 -22.7393
4505.479579 59.088 -40.8232
4538.128141 59.634 -49.8970
4571.013288 60.016 -70.4639
4604.136735 59.815 -121.4238
4637.500207 59.566 178.3184
4671.105446 59.785 162.2861
4704.954201 60.487 144.4443
4739.048239 60.589 98.4648
4773.389336 60.135 56.1514
4807.979283 59.427 16.6533
4842.819883 59.213 -1.8184
4877.912952 59.550 -40.5176
4913.260320 59.409 -99.4160
4948.863830 58.746 -163.0234
4984.725337 57.647 130.7295
5020.846712 56.535 84.1982
5057.229836 56.096 92.6250
5093.876609 56.440 71.9102
5130.788938 57.567 10.6602
5167.968750 58.960 -74.8984
5205.417982 59.764 174.0508
5243.138586 59.813 91.0342
5281.132530 59.338 44.4609
5319.401793 58.569 -2.1172
5357.948371 58.634 -67.8613
5396.774274 59.482 -129.2520
5435.881525 59.180 -165.5039
5475.272163 58.201 -170.2861
5514.948243 57.610 149.7002
5554.911831 57.855 105.6992
5595.165012 58.610 83.9492
5635.709884 59.669 59.3652
5676.548561 60.436 18.9141
5717.683172 60.873 -14.3672
5759.115861 60.940 -57.6152
5800.848789 60.033 -106.6211
5842.884130 59.251 -144.9238
5885.224077 60.015 171.9346
5927.870837 60.527 127.4121
5970.826633 60.586 90.0840
6014.093704 61.021 40.4453
6057.674306 61.176 -11.2754
6101.570711 61.034 -48.2617
6145.785208 61.766 -90.6592
6190.320101 62.674 -151.1025
6235.177712 62.892 160.9912
6280.360380 62.768 116.7324
6325.870460 62.744 67.4814
6371.710325 62.824 26.0469
6417.882365 62.552 -8.2617
6464.388986 61.955 -56.1182
6511.232613 61.342 -111.2305
6558.415689 61.317 -155.9453
6605.940673 61.651 158.6494
6653.810042 62.200 103.3438
6702.026292 62.898 51.3711
6750.591937 63.761 2.1826
6799.509509 64.316 -53.3271
6848.781558 64.633 -101.1787
6898.410653 65.172 -155.7939
6948.399380 65.241 145.0312
6998.750346 64.549 99.6543
7049.466176 63.444 48.6064
7100.549514 62.701 -10.2852
7152.003023 62.624 -48.9561
7203.829385 62.101 -93.0176
7256.031302 61.221 -154.7607
7308.611496 61.076 148.5020
7361.572708 60.590 97.0605
7414.917698 59.985 48.9004
7468.649249 59.939 -7.0342
7522.770160 59.490 -47.1875
7577.283253 59.504 -108.8467
7632.191371 59.513 171.0518
7687.497376 58.304 121.2441
7743.204151 56.855 71.6484
7799.314600 56.951 62.1152
7855.831649 57.679 26.1904
7912.758244 57.845 -45.8271
7970.097352 58.478 -117.4531
8027.851962 59.117 168.6816
8086.025087 59.522 97.1045
8144.619758 59.847 30.5547
8203.639030 59.166 -43.0850
8263.085980 57.886 -119.7285
8322.963708 56.664 170.3037
8383.275334 55.754 150.5166
8444.024002 55.352 133.5801
8505.212881 54.818 137.9355
8566.845160 53.755 127.8613
8628.924051 53.084 74.8760
8691.452792 52.997 -36.0020
8754.434642 53.593 84.7256
8817.872884 55.021 27.4395
8881.770826 56.179 -27.3965
8946.131799 56.221 -108.5771
9010.959157 55.341 -169.6543
9076.256282 54.279 95.3154
9142.026576 53.114 -16.6562
9208.273470 53.111 -104.1650
9275.000415 54.113 -159.6855
9342.210891 55.009 140.5605
9409.908403 55.517 93.3984
9478.096478 55.681 27.6748
9546.778672 55.878 -49.5107
9615.958566 55.856 -118.3281
9685.639765 55.473 171.3604
9755.825904 54.994 109.4766
9826.520640 54.320 31.8232
9897.727659 53.622 -42.5596
9969.450674 53.388 -91.3340
10041.693423 53.869 -127.8184
10114.459673 54.580 167.9531
10187.753217 54.657 89.7227
10261.577877 54.065 8.5215
10335.937500 53.544 -71.2012
10410.835964 53.668 -145.0156
10486.277173 54.141 146.7451
10562.265060 54.641 71.9961
10638.803587 54.926 -14.6748
10715.896743 54.953 -92.8789
10793.548548 55.210 -159.2412
10871.763050 55.956 128.0146
10950.544327 56.303 37.4482
11029.896485 55.657 -55.4121
11109.823662 54.774 -132.8379
11190.330024 54.602 159.6826
11271.419768 54.398 76.5859
11353.097122 53.694 1.9434
11435.366344 53.365 -50.7949
11518.231722 53.754 -117.2510
11601.697577 54.201 157.3271
11685.768261 54.546 64.6885
11770.448155 54.815 -22.8643
11855.741674 54.975 -115.4883
11941.653265 54.719 146.8623
12028.187408 53.589 55.3115
12115.348612 51.840 -24.9961
12203.141422 50.640 -91.7471
12291.570415 50.884 -139.4434
12380.640201 52.061 141.7549
12470.355424 53.245 38.7061
12560.720760 53.537 -74.8203
12651.740920 52.557 177.3330
12743.420650 51.249 127.5537
12835.764729 51.442 109.5938
12928.777972 52.621 20.3184
13022.465227 53.517 -75.1328
13116.831378 53.447 -175.0312
13211.881345 52.628 85.6289
13307.620084 52.089 -13.1855
13404.052584 52.071 -111.5527
13501.183875 52.448 154.7695
13599.019019 53.241 60.6113
13697.563116 54.101 -40.6641
13796.821305 54.598 -145.0742
13896.798760 54.313 108.9219
13997.500692 53.325 7.4688
14098.932352 52.241 -92.3984
14201.099028 51.323 165.2129
14304.006046 50.252 62.9258
14407.658770 49.116 -32.9492
14512.062604 48.344 -127.8203
14617.222992 48.386 137.0195
14723.145416 48.634 23.9766
14829.835397 48.322 -97.7891
14937.298497 47.669 145.5762
15045.540320 47.097 27.0547
15154.566507 46.817 -89.0332
15264.382743 46.302 150.5898
15374.994752 45.330 15.7031
15486.408302 44.352 -122.7500
15598.629201 44.263 114.9004
15711.663298 45.063 -10.6387
15825.516487 45.787 -145.5215
15940.194703 45.857 88.1094
16055.703925 45.629 -28.7500
16172.050174 45.478 -148.0605
16289.239516 45.458 98.2559
16407.278061 46.145 -5.6289
16526.171961 47.637 -106.3750
16645.927415 48.930 137.4375
16766.550667 48.870 7.7422
16888.048005 47.652 -117.4824
17010.425762 46.830 124.1270
17133.690320 47.310 5.5742
17257.848103 48.220 -117.3711
17382.905584 48.581 112.6777
17508.869284 47.824 -18.1191
17635.745768 46.296 -144.4512
17763.541652 44.739 90.2930
17892.263597 43.836 -31.2539
18021.918315 43.959 -150.7949
18152.512564 44.197 84.8691
18284.053153 43.880 -41.0098
18416.546939 43.081 -172.6406
18550.000830 41.935 54.6133
18684.421783 40.761 -74.2363
18819.816805 39.530 162.5918
18956.192956 38.123 41.5156
19093.557344 36.549 -79.3535
19231.917131 35.064 158.5996
19371.279531 34.167 28.4160
19511.651807 33.949 -106.9336
19653.041280 33.429 110.0059
19795.455318 31.982 -37.5645
19938.901348 30.654 178.6836
