* Measurement data measured by REW V5.31
* Source: Scarlett 2i4 USB, MICROPHONE, R, volume: no control. Timing signal peak level -31.0 dBFS, measurement signal peak level -25.5 dBFS
* Format: 512k Log Swept Sine, 1 sweep at -18.0 dBFS using an acoustic timing reference
* Dated: Apr 16, 2024 3:39:07 PM
* REW Settings:
*  C-weighting compensation: Off
*  Target level: 75.0 dB
* Note: ; Delay -0.0087 ms (-3.0 mm, -0.12 in) using estimated IR delay relative to Acoustic reference played from SPEAKER L with no timing offset
* Measurement: screen-p2-l
* Smoothing: 1/48 octave
* Frequency Step: 96 ppo
* Start Frequency: 10.093689 Hz
*
* Freq(Hz) SPL(dB) Phase(degrees)
10.093689 23.742 -4.9685
10.166832 23.008 -5.1210
10.240505 22.099 -4.4285
10.314712 21.157 -2.3664
10.389457 20.250 1.8542
10.464743 19.594 9.1886
10.540575 19.363 20.7473
10.616956 19.447 35.2531
10.693891 19.824 48.8118
10.771383 20.533 58.1556
10.849437 21.664 63.8644
10.928057 23.118 67.1025
11.007246 24.638 68.3564
11.087009 25.981 68.0667
11.167350 27.055 66.5201
11.248273 27.959 64.1750
11.329783 28.738 61.4165
11.411883 29.415 58.4305
11.494578 29.997 55.1204
11.577873 30.471 51.2459
11.661771 30.846 47.1643
11.746277 31.136 43.1495
11.831395 31.348 39.1557
11.917130 31.474 34.6804
12.003487 31.513 30.0263
12.090469 31.465 25.5497
12.178081 31.334 21.2432
12.266329 31.115 16.5367
12.355216 30.799 11.7053
12.444747 30.372 7.1909
12.534926 29.839 2.9391
12.625760 29.195 -1.5080
12.717251 28.397 -5.8676
12.809406 27.394 -9.5455
12.902228 26.144 -12.4750
12.995723 24.705 -14.6429
13.089895 23.177 -15.4089
13.184750 21.541 -13.1285
13.280292 19.724 -4.7580
13.376526 18.222 11.9604
13.473458 17.837 32.1853
13.571093 18.958 47.8684
13.669434 20.890 55.9788
13.768489 22.778 58.3480
13.868261 24.222 57.0057
13.968756 25.433 53.5697
14.069979 26.468 49.2814
14.171936 27.327 44.4960
14.274632 28.003 38.6408
14.378072 28.530 32.4246
14.482261 28.956 26.4656
14.587206 29.283 20.0870
14.692910 29.511 13.3565
14.799381 29.656 7.0230
14.906624 29.724 0.8952
15.014643 29.713 -5.4543
15.123446 29.631 -11.3426
15.233036 29.478 -16.5191
15.343421 29.257 -21.4936
15.454606 28.994 -25.8167
15.566596 28.692 -28.9935
15.679398 28.365 -31.2399
15.793018 28.102 -32.5679
15.907460 27.958 -32.6409
16.022732 27.939 -31.4417
16.138840 28.115 -29.9767
16.255788 28.544 -28.5215
16.373585 29.175 -27.0991
16.492234 29.903 -26.7894
16.611744 30.702 -27.5382
16.732119 31.535 -28.9931
16.853367 32.315 -31.3307
16.975494 33.028 -34.4911
17.098505 33.665 -38.0510
17.222408 34.204 -41.8904
17.347209 34.645 -46.2253
17.472914 34.985 -50.5535
17.599530 35.219 -54.8379
17.727063 35.348 -59.3078
17.855521 35.371 -63.3639
17.984909 35.287 -67.2327
18.115235 35.101 -70.8177
18.246506 34.820 -73.6179
18.378727 34.448 -75.8211
18.511907 34.029 -77.1731
18.646052 33.577 -77.2873
18.781169 33.153 -76.2623
18.917265 32.859 -74.2753
19.054347 32.713 -71.1402
19.192423 32.754 -67.9009
19.331499 33.013 -64.9005
19.471583 33.411 -62.4726
19.612682 33.862 -61.1474
19.754804 34.342 -60.6743
19.897956 34.773 -60.7937
20.042144 35.133 -61.5558
20.187378 35.420 -62.4148
20.333664 35.625 -63.2112
20.481010 35.776 -63.8561
20.629424 35.908 -63.9292
20.778913 36.045 -63.5636
20.929486 36.253 -62.8033
21.081150 36.551 -61.6245
21.233912 36.955 -60.6731
21.387782 37.473 -59.9451
21.542767 38.052 -59.8636
21.698874 38.661 -60.5689
21.856113 39.257 -61.8834
22.014492 39.795 -63.8904
22.174018 40.262 -66.2875
22.334700 40.635 -68.8761
22.496546 40.917 -71.5780
22.659566 41.112 -73.9445
22.823766 41.235 -76.0643
22.989157 41.320 -77.5036
23.155745 41.394 -78.3626
23.323542 41.516 -78.5817
23.492554 41.709 -78.2536
23.662790 42.008 -77.8299
23.834261 42.403 -77.3735
24.006973 42.862 -77.3939
24.180938 43.357 -77.7854
24.356163 43.832 -78.6370
24.532658 44.275 -79.7434
24.710431 44.664 -80.8304
24.889493 45.021 -81.7554
25.069853 45.373 -82.1744
25.251519 45.777 -82.2220
25.434502 46.284 -81.7768
25.618811 46.927 -81.5326
25.804456 47.718 -81.5555
25.991445 48.604 -82.7158
26.179790 49.541 -84.8294
26.369500 50.450 -88.2969
26.560584 51.293 -92.7185
26.753053 52.023 -98.1412
26.946917 52.619 -104.1085
27.142185 53.064 -110.7054
27.338869 53.349 -117.3328
27.536977 53.469 -124.1805
27.736522 53.424 -130.5876
27.937512 53.222 -136.6007
28.139959 52.879 -141.7270
28.343872 52.444 -145.7141
28.549264 51.973 -148.2473
28.756143 51.588 -149.2808
28.964522 51.383 -149.1969
29.174411 51.440 -148.5792
29.385821 51.722 -148.7368
29.598763 52.153 -149.9592
29.813248 52.597 -152.7397
30.029287 52.960 -156.5862
30.246891 53.183 -161.3763
30.466073 53.223 -166.4480
30.686842 53.075 -171.3761
30.909212 52.744 -175.8360
31.133193 52.268 -179.0363
31.358797 51.727 179.2393
31.586035 51.223 179.4647
31.814921 50.923 -178.7422
32.045465 50.907 -176.2732
32.277680 51.182 -174.1064
32.511577 51.630 -173.2921
32.747169 52.125 -173.7638
32.984469 52.587 -175.2792
33.223488 52.970 -177.3827
33.464239 53.289 -179.5829
33.706735 53.576 178.2767
33.950987 53.870 176.3191
34.197010 54.208 174.3929
34.444816 54.597 172.2442
34.694417 55.024 169.7217
34.945827 55.461 166.6920
35.199059 55.879 163.1927
35.454126 56.266 159.3697
35.711041 56.622 155.3314
35.969818 56.958 151.1850
36.230470 57.293 146.9489
36.493011 57.635 142.5331
36.757455 57.981 137.8592
37.023814 58.317 132.8635
37.292104 58.617 127.5420
37.562338 58.863 122.0670
37.834530 59.050 116.6659
38.108695 59.194 111.5546
38.384846 59.332 106.9227
38.662999 59.520 102.8482
38.943167 59.809 99.1164
39.225365 60.219 95.3397
39.509608 60.729 91.1932
39.795911 61.296 86.5266
40.084289 61.880 81.3901
40.374756 62.468 76.0013
40.667328 63.082 70.6185
40.962020 63.775 65.2932
41.258848 64.592 59.7646
41.557827 65.536 53.5726
41.858972 66.567 46.2812
42.162299 67.610 37.6559
42.467824 68.586 27.7069
42.775564 69.433 16.6315
43.085533 70.110 4.7358
43.397749 70.594 -7.6213
43.712227 70.878 -20.0553
44.028983 70.968 -32.2000
44.348036 70.882 -43.7239
44.669400 70.656 -54.3420
44.993093 70.336 -63.8536
45.319131 69.980 -72.1968
45.647532 69.641 -79.4801
45.978313 69.348 -85.9438
46.311491 69.105 -91.8377
46.647083 68.896 -97.2885
46.985107 68.707 -102.2574
47.325581 68.547 -106.6180
47.668521 68.446 -110.3005
48.013947 68.445 -113.4117
48.361876 68.568 -116.2354
48.712326 68.810 -119.1055
49.065315 69.145 -122.2605
49.420863 69.541 -125.7963
49.778987 69.974 -129.7129
50.139706 70.427 -133.9685
50.503039 70.892 -138.4958
50.869005 71.370 -143.2058
51.237623 71.876 -148.0320
51.608912 72.438 -153.0276
51.982891 73.077 -158.4527
52.359580 73.783 -164.7358
52.739000 74.504 -172.2861
53.121168 75.161 178.7051
53.506106 75.673 168.3284
53.893833 75.972 156.8643
54.284370 76.009 144.7156
54.677737 75.757 132.3788
55.073955 75.206 120.4074
55.473043 74.368 109.3937
55.875024 73.280 99.9225
56.279917 72.014 92.4866
56.687745 70.674 87.3261
57.098527 69.371 84.2109
57.512287 68.176 82.5809
57.929045 67.110 82.0234
58.348822 66.178 82.5109
58.771642 65.421 84.1117
59.197525 64.910 86.5513
59.626495 64.693 89.1279
60.058573 64.759 91.0493
60.493782 65.042 91.6486
60.932145 65.443 90.4700
61.373685 65.844 87.3889
61.818424 66.132 82.6887
62.266386 66.235 77.0280
62.717593 66.138 71.1340
63.172071 65.884 65.6307
63.629842 65.547 60.7752
64.090930 65.198 56.3693
64.555359 64.862 51.9565
65.023154 64.522 47.1849
65.494339 64.141 41.9746
65.968938 63.697 36.4065
66.446976 63.182 30.5258
66.928478 62.599 24.2785
67.413469 61.946 17.5209
67.901975 61.217 10.0414
68.394021 60.408 1.5586
68.889632 59.517 -8.3310
69.388835 58.565 -20.1835
69.891655 57.626 -34.8561
70.398118 56.886 -53.4561
70.908252 56.623 -76.6730
71.422083 57.043 -103.0281
71.939636 58.039 -128.9486
72.460941 59.272 -151.8589
72.986023 60.456 -171.4963
73.514909 61.439 171.7036
74.047629 62.190 157.3387
74.584208 62.748 145.1809
75.124676 63.193 134.9462
75.669061 63.598 126.0532
76.217390 63.992 117.6741
76.769692 64.338 109.0742
77.325997 64.563 99.8965
77.886333 64.596 90.2661
78.450730 64.394 80.5449
79.019216 63.941 71.1252
79.591822 63.236 62.2975
80.168577 62.260 54.1938
80.749512 60.955 47.1465
81.334656 59.239 42.3951
81.924040 57.136 43.4177
82.517696 55.190 57.7078
83.115653 54.783 85.4969
83.717943 56.234 103.3328
84.324598 58.205 108.0408
84.935649 59.961 106.3406
85.551128 61.352 101.5474
86.171066 62.396 95.3989
86.795497 63.179 89.0017
87.424453 63.807 82.8260
88.057967 64.362 76.7632
88.696071 64.881 70.4717
89.338800 65.367 63.6631
89.986185 65.809 56.2318
90.638262 66.218 48.1727
91.295065 66.613 39.1344
91.956626 66.953 28.1506
92.622982 67.080 14.3867
93.294166 66.769 -1.8876
93.970214 65.840 -19.2385
94.651161 64.211 -35.5020
95.337042 61.929 -48.2775
96.027894 59.178 -56.0312
96.723752 56.218 -59.4541
97.424652 53.277 -60.1421
98.130631 50.603 -59.4583
98.841726 48.586 -61.3536
99.557974 47.683 -69.5057
100.279412 48.303 -84.0264
101.006078 50.120 -102.9822
101.738010 52.196 -123.0295
102.475245 53.987 -141.6326
103.217823 55.404 -157.9933
103.965782 56.510 -172.6992
104.719161 57.343 172.9788
105.477999 57.873 158.2026
106.242336 58.065 143.3767
107.012212 57.973 130.0387
107.787666 57.775 119.3912
108.568740 57.593 110.6249
109.355474 57.300 103.0333
110.147909 56.828 99.3875
110.946086 56.514 101.9644
111.750047 56.617 105.6399
112.559834 56.874 107.0112
113.375489 57.123 108.8064
114.197055 57.502 111.9480
115.024574 58.137 115.2445
115.858089 59.006 116.7463
116.697645 59.881 114.6873
117.543284 60.541 110.3051
118.395051 60.990 106.0977
119.252990 61.391 103.2845
120.117147 61.900 101.4088
120.987565 62.538 98.9734
121.864291 63.188 94.9023
122.747370 63.719 89.3826
123.636848 64.066 83.0515
124.532771 64.206 76.2854
125.435187 64.108 69.2313
126.344142 63.723 62.3496
127.259684 63.036 56.8705
128.181860 62.145 54.2500
129.110718 61.256 55.1068
130.046308 60.589 58.3268
130.988677 60.203 61.6206
131.937875 60.029 64.9824
132.893951 60.169 70.3835
133.856956 60.856 77.3220
134.826938 62.032 81.6290
135.803950 63.288 80.3829
136.788041 64.288 75.2178
137.779264 64.975 68.9753
138.777669 65.452 62.9797
139.783309 65.831 57.2566
140.796237 66.177 51.4087
141.816504 66.489 44.7222
142.844165 66.687 36.5830
143.879273 66.648 26.8618
144.921881 66.224 15.9958
145.972045 65.314 6.0403
147.029819 64.033 0.0204
148.095257 62.720 -1.8567
149.168417 61.659 -2.3893
150.249353 60.931 -2.7379
151.338121 60.539 -3.7877
152.434780 60.332 -8.3909
153.539385 59.989 -17.2332
154.651995 59.313 -28.8491
155.772667 58.298 -43.3854
156.901460 57.012 -62.7563
158.038432 55.706 -89.9336
159.183644 55.042 -127.7115
160.337154 55.566 -167.8242
161.499023 56.844 161.6902
162.669312 58.079 139.0762
163.848081 58.768 120.5963
165.035392 58.783 106.8207
166.231306 58.456 101.3809
167.435887 58.562 105.5757
168.649196 59.584 111.9718
169.871298 61.147 113.8065
171.102255 62.754 111.2216
172.342133 64.210 106.3140
173.590995 65.454 99.6218
174.848907 66.394 90.9739
176.115934 66.975 81.5542
177.392143 67.255 72.9149
178.677599 67.315 64.9613
179.972371 67.136 57.1978
181.276525 66.715 51.1384
182.590129 66.263 48.7687
183.913252 66.132 49.4976
185.245964 66.514 50.2871
186.588332 67.275 48.4481
187.940428 68.127 42.9969
189.302322 68.809 33.8944
190.674085 69.104 21.5021
192.055788 68.855 7.1693
193.447503 67.993 -7.5096
194.849303 66.476 -21.3302
196.261262 64.255 -32.5742
197.683452 61.371 -36.1462
199.115948 58.567 -8.8510
200.558824 57.901 34.2296
202.012156 59.120 38.0603
203.476019 60.131 29.3413
204.950490 60.173 16.5360
206.435646 59.148 3.5582
207.931564 57.381 -1.4603
209.438322 56.355 67.4669
210.955998 57.206 90.2290
212.484672 58.867 86.3583
214.024424 61.518 94.5840
215.575333 65.139 111.0920
217.137481 68.576 111.6998
218.710948 71.044 95.7472
220.295818 72.319 73.7294
221.892172 72.511 53.0413
223.500094 71.954 38.0637
225.119668 71.230 31.3563
226.750978 71.037 30.4308
228.394109 71.423 26.1017
230.049147 71.749 16.0382
231.716178 71.632 4.9633
233.395289 71.168 -3.4258
235.086567 70.605 -9.8835
236.790102 70.081 -15.1610
238.505980 69.704 -19.5238
240.234293 69.308 -27.8080
241.975130 68.489 -37.9080
243.728581 67.203 -44.3129
245.494739 65.733 -46.8406
247.273695 64.245 -49.4202
249.065542 62.570 -52.3608
250.870374 60.601 -49.7432
252.688284 59.000 -31.9321
254.519367 59.229 -0.9178
256.363720 61.010 13.4041
258.221437 62.736 11.4740
260.092616 63.705 3.0370
261.977354 63.954 -4.2471
263.875750 64.080 -4.2240
265.787903 64.896 2.6223
267.713911 66.392 4.2775
269.653877 67.898 -2.3596
271.607900 68.990 -14.1199
273.576083 69.416 -29.9043
275.558528 68.987 -47.1595
277.555338 67.673 -61.0073
279.566619 65.837 -63.2909
281.592474 64.501 -51.8688
283.633009 64.206 -49.1462
285.688331 64.166 -53.8988
287.758546 64.188 -54.7135
289.843763 64.569 -55.3835
291.944090 65.025 -62.6393
294.059638 64.976 -75.7593
296.190515 64.088 -89.5674
298.336833 62.581 -93.2029
300.498705 61.566 -80.2922
302.676243 61.593 -79.3901
304.869559 61.569 -90.6440
307.078770 60.797 -103.4836
309.303989 59.322 -111.5645
311.545334 58.407 -101.2529
313.802919 60.218 -63.4639
316.076865 63.382 -54.5282
318.367288 65.949 -71.4395
320.674309 67.522 -95.6042
322.998047 68.239 -120.0923
325.338624 68.436 -141.8340
327.696162 68.503 -160.7080
330.070783 68.642 -178.9209
332.462612 68.737 161.5701
334.871773 68.523 140.6274
337.298392 67.771 119.9902
339.742595 66.462 104.3176
342.204510 65.123 99.8379
344.684265 64.695 101.0369
347.181989 65.089 94.7896
349.697813 65.606 85.2876
352.231868 66.111 76.2727
354.784285 66.369 62.9377
357.355198 65.947 47.3733
359.944741 64.838 37.0452
362.553049 63.537 34.7275
365.180258 62.536 34.4248
367.826505 61.850 33.5674
370.491927 61.480 36.1069
373.176665 61.574 39.8320
375.880856 61.947 38.9431
378.604644 62.534 39.6746
381.348169 63.407 40.0776
384.111575 64.031 31.7249
386.895006 63.998 22.3982
389.698607 63.913 24.9058
392.522524 64.412 26.6277
395.366904 65.048 19.7366
398.231895 65.602 13.3706
401.117648 66.057 4.3801
404.024312 66.116 -8.4426
406.952038 65.633 -21.4697
409.900981 64.645 -33.0134
412.871292 63.294 -41.2156
415.863128 61.761 -48.3391
418.876643 60.117 -53.6582
421.911996 58.574 -57.8767
424.969344 57.382 -65.7681
428.048847 56.565 -84.9907
431.150666 56.205 -120.8433
434.274961 56.744 -172.3232
437.421897 58.385 147.7966
440.591636 60.601 124.3743
443.784345 62.437 103.7034
447.000189 63.495 84.7620
450.239337 64.109 72.7695
453.501956 64.756 64.9905
456.788219 65.604 59.8020
460.098294 66.515 52.7671
463.432356 67.034 41.1897
466.790578 67.204 33.2979
470.173135 67.528 29.2852
473.580203 68.064 22.6709
477.011961 68.487 12.6448
480.468586 68.623 2.1389
483.950259 68.584 -7.7563
487.457163 68.149 -22.1113
490.989478 67.001 -34.8345
494.547390 65.401 -42.5007
498.131084 63.676 -50.3679
501.740748 61.829 -61.6982
505.376568 59.887 -80.9919
509.038735 58.988 -143.6592
512.727439 60.391 108.6013
516.442874 62.827 81.1609
520.185232 65.444 68.6133
523.954708 67.988 59.4956
527.751500 69.925 43.8359
531.575805 70.848 23.0066
535.427822 70.822 4.4270
539.307753 70.381 -6.7805
543.215800 70.030 -16.7761
547.152165 69.488 -31.2561
551.117055 68.260 -46.6592
555.110677 66.215 -54.9692
559.133237 64.060 -38.6545
563.184947 63.148 -20.4600
567.266018 63.426 -18.8748
571.376661 64.608 -10.3989
575.517092 66.194 -10.6760
579.687526 67.074 -25.4578
583.888181 66.903 -40.9851
588.119275 66.226 -49.1406
592.381030 65.608 -58.5886
596.673667 64.636 -76.1809
600.997410 62.780 -96.9846
605.352485 60.503 -121.2754
609.739119 60.087 100.9832
614.157540 61.710 53.5981
618.607979 62.879 27.9897
623.090667 63.361 13.0142
627.605839 64.274 11.3835
632.153730 66.208 15.8975
636.734576 68.212 6.7849
641.348617 69.338 -13.6294
645.996094 69.198 -38.5969
650.677248 67.532 -60.7563
655.392323 64.763 -58.0020
660.141566 63.367 5.4297
664.925224 65.073 16.7849
669.743546 67.572 10.8354
674.596784 69.824 2.5610
679.485191 71.394 -13.3879
684.409020 71.798 -35.5256
689.368530 70.922 -55.1858
694.363979 69.157 -63.2759
699.395626 67.507 -59.7764
704.463736 66.859 -55.4177
709.568570 66.831 -59.2383
714.710396 66.505 -67.6018
719.889483 65.698 -72.8271
725.106099 64.495 -78.3711
730.360516 62.904 -75.0396
735.653010 62.167 -49.1245
740.983855 63.381 -32.6584
746.353329 65.513 -27.9429
751.761713 67.654 -29.7788
757.209288 69.283 -39.6204
762.696339 70.258 -52.0708
768.223151 70.914 -62.0996
773.790013 71.399 -73.9509
779.397214 71.508 -87.9712
785.045047 71.079 -103.0366
790.733808 70.255 -112.2212
796.463791 70.008 -107.5657
802.235296 70.564 -115.6311
808.048623 70.613 -137.1533
813.904077 69.482 -159.0330
819.801961 67.655 -166.7515
825.742584 66.869 -163.4250
831.726255 67.540 176.0369
837.753287 67.761 130.9680
843.823992 66.695 60.3652
849.938689 65.123 -19.3223
856.097695 64.359 -67.7751
862.301332 64.655 -99.9097
868.549922 65.183 -130.5967
874.843793 65.951 -160.0286
881.183272 67.089 162.6135
887.568689 67.646 113.4746
894.000378 67.296 62.8438
900.478673 66.327 23.3145
907.003913 65.778 22.7393
913.576437 66.597 16.0508
920.196588 67.693 -7.7646
926.864712 68.618 -27.4053
933.581156 69.353 -47.3223
940.346270 69.815 -67.3105
947.160407 70.101 -88.7017
954.023921 70.086 -113.7666
960.937172 69.263 -145.5669
967.900519 67.103 -179.6484
974.914325 63.900 173.1133
981.978956 61.516 -69.7979
989.094780 61.563 -86.6670
996.262169 62.973 -91.0342
1003.481495 64.451 -105.0117
1010.753136 64.810 -135.0645
1018.077470 64.194 -167.2124
1025.454879 64.076 142.3428
1032.885748 64.563 -31.7163
1040.370463 64.673 -73.9434
1047.909417 65.073 -92.2974
1055.503000 66.423 -105.5723
1063.151610 67.458 -130.9565
1070.855645 67.107 -161.9380
1078.615506 65.732 178.1030
1086.431599 64.835 178.1406
1094.304330 65.235 162.1440
1102.234110 65.870 134.4204
1110.221353 66.590 105.1460
1118.266475 68.016 80.3003
1126.369895 69.663 44.6743
1134.532035 70.276 -2.0537
1142.753322 69.552 -48.2959
1151.034184 67.611 -85.4307
1159.375052 65.208 -91.9351
1167.776361 64.222 -94.8008
1176.238550 64.512 -121.4766
1184.762060 65.108 -151.9297
1193.347334 65.395 161.3257
1201.994821 64.420 90.1685
1210.704971 62.822 12.3315
1219.478238 63.191 -31.9473
1228.315080 64.945 -67.6401
1237.215957 65.676 -107.1016
1246.181334 64.924 -142.6626
1255.211678 63.285 -167.7109
1264.307459 61.674 -178.6719
1273.469152 60.846 173.5117
1282.697235 60.969 157.3198
1291.992188 61.988 137.9380
1301.354495 63.415 108.4492
1310.784647 64.608 66.6372
1320.283132 65.162 11.3779
1329.850448 64.721 -61.8906
1339.487093 64.033 -145.0625
1349.193569 64.267 149.5640
1358.970381 64.883 98.3750
1368.818041 64.727 54.9258
1378.737061 63.741 22.0913
1388.727958 62.759 -5.9927
1398.791253 62.026 -32.9648
1408.927471 61.403 -66.9419
1419.137140 60.639 -114.1685
1429.420793 60.162 174.2559
1439.778965 61.159 107.3081
1450.212197 63.375 64.9780
1460.721033 64.867 21.9668
1471.306019 64.912 -18.6328
1481.967709 63.631 -54.3540
1492.706658 61.508 -72.1582
1503.523426 60.640 -37.3560
1514.418576 61.412 -44.1777
1525.392678 61.750 -82.2202
1536.446302 61.362 25.7900
1547.580025 61.248 -1.3838
1558.794428 62.063 -1.6616
1570.090095 63.767 15.5933
1581.467615 65.696 -2.6416
1592.927581 67.050 -31.6826
1604.470591 67.143 -63.0869
1616.097246 66.009 -85.4785
1627.808153 64.688 -98.5391
1639.603922 63.719 -122.7749
1651.485168 63.728 -43.3159
1663.452510 66.190 -5.5239
1675.506573 69.062 -25.0635
1687.647984 70.153 -60.3247
1699.877377 69.170 -89.3887
1712.195390 67.506 -100.5771
1724.602663 66.563 -113.6992
1737.099845 65.543 -129.9131
1749.687587 63.791 -128.4932
1762.366544 62.829 -107.6855
1775.137379 63.451 -105.8613
1788.000756 64.500 -114.3384
1800.957346 65.483 -124.7207
1814.007826 66.311 -138.0083
1827.152874 66.427 -155.0259
1840.393177 65.719 -161.8716
1853.729425 65.026 -167.7012
1867.162312 64.935 -172.4502
1880.692540 65.415 -172.6089
1894.320813 65.363 -178.6860
1908.047843 64.985 -167.6938
1921.874344 64.715 -165.9307
1935.801038 64.357 -163.6587
1949.828650 63.527 -176.5088
1963.957912 62.523 175.1353
1978.189561 61.858 176.7153
1992.524338 62.102 175.9868
2006.962991 62.789 158.8662
2021.506272 62.953 129.1558
2036.154940 63.110 -123.7822
2050.909758 63.950 -131.7031
2065.771495 64.978 -153.5801
2080.740927 65.171 -174.0220
2095.818833 65.025 174.1699
2111.006001 64.765 157.0093
2126.303220 63.876 145.6348
2141.711290 62.720 140.5098
2157.231013 61.894 142.1128
2172.863198 61.738 146.3721
2188.608660 62.096 151.2754
2204.468221 62.467 155.4331
2220.442706 63.090 160.6372
2236.532950 63.198 144.8091
2252.739789 62.136 141.8413
2269.064070 62.114 -163.4043
2285.506644 64.210 -158.3008
2302.068367 66.652 -170.9019
2318.750104 67.967 166.3242
2335.552723 67.646 144.8511
2352.477101 66.313 132.7393
2369.524119 64.976 131.7690
2386.694668 64.886 134.9243
2403.989641 65.987 129.9038
2421.409941 66.447 109.8242
2438.956476 65.230 88.6079
2456.630160 63.098 87.2773
2474.431915 61.823 127.2246
2492.362668 61.970 136.2246
2510.423356 63.091 146.6099
2528.614918 65.051 153.0215
2546.938304 66.731 145.9287
2565.394469 68.097 136.2461
2583.984375 68.779 118.5063
2602.708991 68.710 100.8862
2621.569293 68.008 85.5278
2640.566265 66.719 75.4692
2659.700897 65.389 72.6079
2678.974186 65.086 80.4067
2698.387137 65.455 69.6196
2717.940763 64.880 51.2173
2737.636082 63.869 72.8774
2757.474121 64.304 117.7183
2777.455915 65.802 112.5264
2797.582506 66.954 93.4165
2817.854942 66.941 72.6104
2838.274281 66.579 75.3926
2858.841586 67.059 80.7993
2879.557931 67.679 64.7671
2900.424394 67.690 44.0283
2921.442065 66.754 22.6016
2942.612039 64.864 11.4053
2963.935418 63.066 27.1172
2985.413316 62.236 28.0444
3007.046852 61.135 23.4399
3028.837153 59.599 37.2852
3050.785356 59.027 42.2266
3072.892604 60.154 57.3633
3095.160050 61.499 50.4360
3117.588856 61.294 35.0288
3140.180190 60.034 38.8242
3162.935230 59.786 39.5962
3185.855163 60.491 23.1611
3208.941182 60.599 -3.8154
3232.194493 60.098 35.7217
3255.616307 59.983 52.0669
3279.207844 59.763 12.5786
3302.970336 59.709 151.9766
3326.905021 60.237 114.0044
3351.013146 60.672 82.0635
3375.295969 60.586 51.8638
3399.754755 59.881 32.2051
3424.390779 59.117 80.9697
3449.205326 58.975 83.3989
3474.199690 58.968 88.0488
3499.375173 58.298 88.2266
3524.733088 57.811 121.3066
3550.274757 58.135 115.3276
3576.001511 59.259 114.3271
3601.914692 60.907 107.4736
3628.015651 61.451 84.4458
3654.305748 60.638 65.8511
3680.786354 59.633 70.2207
3707.458849 59.747 80.7612
3734.324624 60.010 63.7676
3761.385080 59.425 47.7734
3788.641627 59.385 104.2075
3816.095686 60.938 137.9795
3843.748688 62.114 117.5933
3871.602076 62.333 93.7036
3899.657300 61.530 73.2158
3927.915825 60.165 67.0591
3956.379122 59.549 69.3467
3985.048676 59.522 58.2437
4013.925981 58.956 56.7358
4043.012544 58.699 114.9980
4072.309879 59.766 114.1182
4101.819515 60.729 98.1094
4131.542990 60.468 79.4199
4161.481854 59.329 72.7817
4191.637667 58.500 84.8384
4222.012001 58.253 86.7124
4252.606441 58.017 86.8994
4283.422580 58.646 106.8208
4314.462026 60.309 114.4951
4345.726396 61.711 102.8984
4377.217321 62.191 88.6890
4408.936442 62.220 91.7744
4440.885413 62.529 93.6768
4473.065899 62.492 81.6421
4505.479579 61.879 81.1567
4538.128141 61.607 85.5581
4571.013288 61.690 85.1768
4604.136735 62.407 90.9224
4637.500207 63.012 80.7720
4671.105446 63.057 76.2095
4704.954201 63.464 81.7383
4739.048239 63.606 70.0684
4773.389336 62.873 69.2788
4807.979283 62.766 82.0415
4842.819883 63.361 76.0283
4877.912952 63.648 69.8350
4913.260320 63.485 64.7061
4948.863830 63.160 61.4297
4984.725337 63.219 59.7568
5020.846712 62.995 51.4639
5057.229836 62.107 52.4248
5093.876609 61.826 60.2622
5130.788938 62.014 55.2998
5167.968750 62.046 61.6143
5205.417982 62.302 67.0684
5243.138586 62.303 65.2534
5281.132530 62.121 65.9224
5319.401793 61.980 60.9097
5357.948371 61.993 61.1016
5396.774274 62.560 62.2598
5435.881525 63.194 63.7256
5475.272163 63.560 60.5010
5514.948243 63.355 54.5015
5554.911831 63.075 52.0957
5595.165012 62.791 44.3145
5635.709884 62.286 41.1099
5676.548561 62.006 42.3911
5717.683172 61.874 39.9814
5759.115861 61.749 40.4956
5800.848789 61.396 37.4976
5842.884130 61.095 40.4590
5885.224077 61.239 41.9272
5927.870837 61.358 54.4307
5970.826633 61.607 55.5288
6014.093704 61.877 54.7686
6057.674306 62.088 52.4775
6101.570711 61.719 45.3765
6145.785208 61.206 45.7529
6190.320101 61.374 53.1680
6235.177712 62.158 54.3364
6280.360380 62.821 48.0835
6325.870460 63.098 39.0259
6371.710325 62.772 29.1333
6417.882365 61.987 31.6582
6464.388986 61.935 41.4604
6511.232613 62.747 42.8853
6558.415689 63.578 35.4785
6605.940673 63.599 21.7427
6653.810042 62.599 11.7261
6702.026292 61.452 18.6890
6750.591937 61.448 30.0024
6799.509509 62.107 24.9468
6848.781558 62.188 13.4424
6898.410653 61.381 7.2251
6948.399380 60.579 21.7505
6998.750346 60.888 35.2920
7049.466176 61.672 26.5244
7100.549514 61.656 12.9004
7152.003023 60.731 10.2505
7203.829385 59.850 18.0298
7256.031302 59.876 25.4814
7308.611496 60.404 23.2227
7361.572708 60.595 20.3516
7414.917698 60.357 25.4639
7468.649249 60.343 32.2007
7522.770160 60.732 36.4170
7577.283253 60.857 32.7461
7632.191371 60.648 30.9971
7687.497376 60.660 38.3491
7743.204151 61.536 44.1162
7799.314600 62.491 38.4604
7855.831649 63.107 30.4609
7912.758244 63.313 21.7778
7970.097352 63.161 16.8408
8027.851962 62.850 12.4351
8086.025087 62.432 9.0635
8144.619758 61.967 3.9785
8203.639030 61.493 1.5425
8263.085980 61.258 4.8726
8322.963708 61.397 8.7876
8383.275334 61.580 4.0625
8444.024002 61.184 -4.8066
8505.212881 60.473 -2.8364
8566.845160 59.985 7.2280
8628.924051 59.912 5.2427
8691.452792 59.608 2.0713
8754.434642 58.895 9.3862
8817.872884 58.360 15.2344
8881.770826 58.029 18.4146
8946.131799 57.913 27.0454
9010.959157 58.505 36.8950
9076.256282 59.795 44.7939
9142.026576 61.193 45.2593
9208.273470 62.006 38.3892
9275.000415 62.391 33.3735
9342.210891 63.114 33.7681
9409.908403 64.066 29.4536
9478.096478 64.676 20.6445
9546.778672 64.643 12.4468
9615.958566 64.558 8.5908
9685.639765 64.594 1.6494
9755.825904 64.321 -8.0195
9826.520640 63.484 -12.6631
9897.727659 62.856 -7.4194
9969.450674 62.783 -9.8618
10041.693423 62.513 -17.1875
10114.459673 62.242 -12.8896
10187.753217 62.304 -8.0063
10261.577877 62.326 -14.9746
10335.937500 61.839 -18.4619
10410.835964 61.498 -11.4756
10486.277173 61.534 -15.1064
10562.265060 61.138 -24.3350
10638.803587 60.404 -19.1587
10715.896743 59.997 -12.4175
10793.548548 59.608 -14.6392
10871.763050 59.446 -8.1074
10950.544327 59.727 -1.4468
11029.896485 59.870 -7.0298
11109.823662 59.635 -7.0952
11190.330024 59.541 -3.3867
11271.419768 59.238 -10.2466
11353.097122 58.599 -10.5884
11435.366344 58.649 2.3433
11518.231722 59.259 5.6074
11601.697577 59.701 4.6372
11685.768261 60.223 5.2319
11770.448155 60.741 -0.6455
11855.741674 60.742 -9.0029
11941.653265 60.578 -10.5205
12028.187408 60.503 -13.5112
12115.348612 60.178 -18.3569
12203.141422 59.858 -18.1826
12291.570415 59.747 -19.4492
12380.640201 59.554 -22.2788
12470.355424 59.378 -22.5879
12560.720760 59.412 -22.3252
12651.740920 59.574 -22.6626
12743.420650 60.034 -22.4248
12835.764729 60.586 -28.0850
12928.777972 60.658 -39.4180
13022.465227 59.970 -52.5264
13116.831378 58.708 -62.6104
13211.881345 57.252 -64.4937
13307.620084 55.935 -32.1089
13404.052584 55.396 -6.8188
13501.183875 55.993 -3.2456
13599.019019 56.952 -7.1064
13697.563116 57.344 -13.8701
13796.821305 57.514 -14.7373
13896.798760 57.728 -20.4683
13997.500692 57.655 -27.2285
14098.932352 57.529 -31.2021
14201.099028 57.073 -37.8516
14304.006046 56.176 -40.8071
14407.658770 55.296 -37.4604
14512.062604 54.804 -30.4810
14617.222992 54.845 -27.1685
14723.145416 54.942 -30.3965
14829.835397 54.944 -32.1655
14937.298497 55.025 -34.7324
15045.540320 54.897 -39.1089
15154.566507 54.651 -40.0991
15264.382743 54.485 -44.1475
15374.994752 54.193 -49.1040
15486.408302 53.812 -54.2905
15598.629201 53.066 -60.8345
15711.663298 52.106 -64.6064
15825.516487 51.096 -69.9722
15940.194703 49.884 -70.8140
16055.703925 48.577 -71.8784
16172.050174 47.413 -67.9160
16289.239516 46.814 -62.0801
16407.278061 46.199 -67.5947
16526.171961 46.171 -17.2642
16645.927415 47.786 86.2910
16766.550667 49.729 70.5547
16888.048005 51.226 58.9326
17010.425762 52.388 48.0044
17133.690320 53.225 40.2676
17257.848103 54.007 34.2930
17382.905584 54.526 29.5459
17508.869284 55.087 26.1030
17635.745768 55.590 19.5195
17763.541652 55.884 11.7007
17892.263597 55.695 4.5459
18021.918315 55.360 1.4087
18152.512564 55.164 -0.5693
18284.053153 55.200 -2.2100
18416.546939 55.376 -4.3018
18550.000830 55.590 -7.6426
18684.421783 55.589 -14.2305
18819.816805 55.253 -21.6030
18956.192956 54.568 -28.1074
19093.557344 53.602 -32.8608
19231.917131 52.476 -34.9897
19371.279531 51.496 -35.0376
19511.651807 50.586 -37.2266
19653.041280 49.453 -39.7798
19795.455318 48.221 -39.5605
19938.901348 47.353 -36.5029
