* Measurement data measured by REW V5.31
* Source: Scarlett 2i4 USB, MICROPHONE, R, volume: no control. Timing signal peak level -31.1 dBFS, measurement signal peak level -22.1 dBFS
* Format: 512k Log Swept Sine, 1 sweep at -18.0 dBFS using an acoustic timing reference
* Dated: Apr 16, 2024 3:44:36 PM
* REW Settings:
*  C-weighting compensation: Off
*  Target level: 75.0 dB
* Note: ; Delay -3.0220 ms (-1.037 m, -(3 ft 4.8 in)) using IR start time relative to Acoustic reference played from SPEAKER L with no timing offset
* Measurement: screen-p3-rl
* Smoothing: 1/48 octave
* Frequency Step: 96 ppo
* Start Frequency: 10.093689 Hz
*
* Freq(Hz) SPL(dB) Phase(degrees)
10.093689 15.456 40.7170
10.166832 16.161 37.8034
10.240505 17.003 34.5756
10.314712 17.864 31.2513
10.389457 18.705 27.9165
10.464743 19.444 24.5226
10.540575 20.025 20.7971
10.616956 20.506 16.9157
10.693891 20.916 13.0574
10.771383 21.269 9.3288
10.849437 21.564 5.4493
10.928057 21.795 1.3240
11.007246 21.968 -2.8416
11.087009 22.092 -6.8692
11.167350 22.167 -10.8327
11.248273 22.188 -15.0492
11.329783 22.159 -19.3580
11.411883 22.083 -23.5601
11.494578 21.961 -27.5904
11.577873 21.791 -31.7946
11.661771 21.573 -36.0936
11.746277 21.312 -40.3070
11.831395 21.006 -44.3084
11.917130 20.655 -48.3655
12.003487 20.259 -52.4605
12.090469 19.823 -56.4579
12.178081 19.347 -60.2199
12.266329 18.828 -63.8802
12.355216 18.272 -67.4608
12.444747 17.686 -70.8947
12.534926 17.069 -74.0237
12.625760 16.419 -76.8351
12.717251 15.751 -79.3962
12.809406 15.076 -81.7302
12.902228 14.388 -83.5544
12.995723 13.697 -84.8228
13.089895 13.030 -85.6559
13.184750 12.399 -86.0840
13.280292 11.798 -85.7499
13.376526 11.259 -84.7143
13.473458 10.826 -83.1614
13.571093 10.500 -80.9842
13.669434 10.292 -78.1914
13.768489 10.237 -75.0737
13.868261 10.367 -71.8481
13.968756 10.673 -68.5767
14.069979 11.118 -65.7047
14.171936 11.676 -63.5429
14.274632 12.358 -61.8825
14.378072 13.114 -60.9063
14.482261 13.879 -60.7938
14.587206 14.647 -61.3432
14.692910 15.408 -62.3808
14.799381 16.125 -63.9020
14.906624 16.784 -65.9334
15.014643 17.386 -68.2904
15.123446 17.918 -70.7540
15.233036 18.370 -73.3969
15.343421 18.744 -76.2592
15.454606 19.034 -78.9564
15.566596 19.236 -81.4533
15.679398 19.351 -83.9617
15.793018 19.386 -86.0461
15.907460 19.340 -87.5164
16.022732 19.221 -88.5684
16.138840 19.077 -88.8889
16.255788 18.924 -88.1929
16.373585 18.788 -86.5911
16.492234 18.765 -84.3718
16.611744 18.903 -81.4305
16.732119 19.184 -78.2141
16.853367 19.608 -75.7322
16.975494 20.184 -73.8414
17.098505 20.830 -72.8266
17.222408 21.456 -73.0845
17.347209 22.059 -74.2929
17.472914 22.588 -76.2149
17.599530 23.002 -78.9412
17.727063 23.302 -82.3528
17.855521 23.462 -85.9184
17.984909 23.476 -90.0466
18.115235 23.326 -94.4181
18.246506 22.992 -98.5152
18.378727 22.463 -102.9335
18.511907 21.687 -106.8524
18.646052 20.632 -110.0179
18.781169 19.273 -112.2994
18.917265 17.499 -111.9001
19.054347 15.350 -106.4728
19.192423 13.811 -92.3428
19.331499 13.655 -66.8298
19.471583 14.551 -44.9311
19.612682 16.061 -35.9833
19.754804 17.885 -34.0585
19.897956 19.351 -35.6613
20.042144 20.332 -39.9349
20.187378 20.940 -44.8931
20.333664 21.212 -50.8243
20.481010 21.132 -57.4378
20.629424 20.696 -63.7279
20.778913 19.850 -70.9395
20.929486 18.398 -77.0699
21.081150 16.315 -83.1827
21.233912 14.240 -86.0852
21.387782 12.589 -65.2865
21.542767 12.789 39.2605
21.698874 15.503 44.9542
21.856113 18.619 40.7616
22.014492 20.792 33.6792
22.174018 22.377 26.0820
22.334700 23.536 18.2594
22.496546 24.301 10.0842
22.659566 24.752 2.4928
22.823766 24.892 -5.3233
22.989157 24.738 -11.9556
23.155745 24.290 -18.2220
23.323542 23.545 -22.4151
23.492554 22.559 -24.5635
23.662790 21.514 -22.8672
23.834261 20.652 -16.2588
24.006973 20.580 -6.7427
24.180938 21.261 2.8091
24.356163 22.355 7.5685
24.532658 23.573 8.8311
24.710431 24.512 7.2834
24.889493 25.144 4.7311
25.069853 25.425 2.3096
25.251519 25.447 1.3470
25.434502 25.314 3.4176
25.618811 25.495 9.4269
25.804456 26.316 19.3424
25.991445 27.864 27.7000
26.179790 29.938 32.5957
26.369500 31.999 32.2623
26.560584 33.913 29.1172
26.753053 35.553 23.5496
26.946917 36.928 16.9762
27.142185 38.039 9.4193
27.338869 38.906 1.8140
27.536977 39.536 -6.0712
27.736522 39.945 -13.4423
27.937512 40.147 -20.3642
28.139959 40.163 -26.3756
28.343872 40.045 -31.0915
28.549264 39.848 -34.3016
28.756143 39.705 -35.3164
28.964522 39.723 -35.7376
29.174411 40.007 -34.8684
29.385821 40.539 -34.6475
29.598763 41.242 -35.4667
29.813248 41.970 -37.9943
30.029287 42.620 -41.7995
30.246891 43.127 -46.7182
30.466073 43.444 -52.1952
30.686842 43.562 -57.7796
30.909212 43.476 -63.2812
31.133193 43.203 -67.9660
31.358797 42.782 -71.6323
31.586035 42.265 -73.8096
31.814921 41.764 -74.2635
32.045465 41.383 -73.2701
32.277680 41.201 -71.2371
32.511577 41.229 -69.2912
32.747169 41.384 -68.0150
32.984469 41.578 -67.2075
33.223488 41.730 -66.9112
33.464239 41.832 -66.3067
33.706735 41.930 -65.0174
33.950987 42.109 -62.7421
34.197010 42.480 -59.7803
34.444816 43.069 -57.0014
34.694417 43.836 -55.1064
34.945827 44.687 -54.5665
35.199059 45.516 -55.3604
35.454126 46.270 -57.0724
35.711041 46.930 -59.3422
35.969818 47.500 -61.8354
36.230470 48.009 -64.2963
36.493011 48.486 -66.7117
36.757455 48.948 -69.1587
37.023814 49.400 -71.7568
37.292104 49.823 -74.6452
37.562338 50.191 -77.8232
37.834530 50.480 -81.1389
38.108695 50.682 -84.3807
38.384846 50.807 -87.2948
38.662999 50.887 -89.6203
38.943167 50.979 -91.2539
39.225365 51.135 -92.3624
39.509608 51.385 -93.2731
39.795911 51.724 -94.3381
40.084289 52.121 -95.7935
40.374756 52.543 -97.6705
40.667328 52.976 -99.8301
40.962020 53.434 -102.1588
41.258848 53.943 -104.7437
41.557827 54.515 -107.8722
41.858972 55.127 -111.9026
42.162299 55.726 -117.0959
42.467824 56.240 -123.5150
42.775564 56.601 -131.0174
43.085533 56.755 -139.3019
43.397749 56.665 -147.9568
43.712227 56.312 -156.4851
44.028983 55.695 -164.3443
44.348036 54.839 -170.9619
44.669400 53.803 -175.7938
44.993093 52.691 -178.5090
45.319131 51.629 -179.2804
45.647532 50.701 -178.8822
45.978313 49.898 -178.2302
46.311491 49.128 -177.6830
46.647083 48.298 -176.8248
46.985107 47.391 -174.7894
47.325581 46.481 -170.8128
47.668521 45.704 -164.8198
48.013947 45.165 -157.5739
48.361876 44.882 -149.9426
48.712326 44.830 -142.1244
49.065315 45.030 -133.9179
49.420863 45.537 -125.5651
49.778987 46.356 -117.9890
50.139706 47.405 -112.0742
50.503039 48.575 -108.0145
50.869005 49.798 -105.4417
51.237623 51.068 -103.8953
51.608912 52.414 -103.2065
51.982891 53.853 -103.6535
52.359580 55.356 -105.7962
52.739000 56.838 -110.0865
53.121168 58.202 -116.5974
53.506106 59.360 -125.0382
53.893833 60.251 -134.9333
54.284370 60.840 -145.7496
54.677737 61.111 -156.9234
55.073955 61.071 -167.8871
55.473043 60.742 -178.0888
55.875024 60.172 172.9592
56.279917 59.432 165.5978
56.687745 58.606 159.9557
57.098527 57.778 155.8481
57.512287 57.001 152.8936
57.929045 56.298 150.7672
58.348822 55.683 149.2935
58.771642 55.175 148.2791
59.197525 54.787 147.3720
59.626495 54.505 146.1530
60.058573 54.281 144.3799
60.493782 54.064 142.1025
60.932145 53.827 139.5676
61.373685 53.572 136.9918
61.818424 53.320 134.4391
62.266386 53.085 131.7917
62.717593 52.865 128.8751
63.172071 52.639 125.6034
63.629842 52.386 122.0723
64.090930 52.104 118.4746
64.555359 51.818 114.9226
65.023154 51.562 111.2478
65.494339 51.344 107.0634
65.968938 51.128 102.0382
66.446976 50.863 96.1907
66.928478 50.520 89.8776
67.413469 50.121 83.5138
67.901975 49.730 77.2759
68.394021 49.417 71.0782
68.889632 49.234 64.7859
69.388835 49.225 58.3311
69.891655 49.429 51.5873
70.398118 49.837 44.1120
70.908252 50.356 35.5875
71.422083 50.857 26.3050
71.939636 51.278 17.1797
72.460941 51.686 9.2736
72.986023 52.219 2.7056
73.514909 52.934 -3.6851
74.047629 53.706 -11.2264
74.584208 54.336 -20.1160
75.124676 54.708 -29.3301
75.669061 54.828 -37.6852
76.217390 54.800 -44.3361
76.769692 54.739 -49.3134
77.325997 54.705 -53.1010
77.886333 54.700 -56.0350
78.450730 54.726 -58.0759
79.019216 54.808 -59.1779
79.591822 54.975 -59.4581
80.168577 55.258 -59.0231
80.749512 55.693 -58.0134
81.334656 56.311 -56.8659
81.924040 57.090 -56.2993
82.517696 57.958 -56.8931
83.115653 58.821 -58.7985
83.717943 59.609 -61.7174
84.324598 60.300 -65.1055
84.935649 60.912 -68.5485
85.551128 61.477 -71.9417
86.171066 62.010 -75.3146
86.795497 62.529 -78.5818
87.424453 63.067 -81.6749
88.057967 63.649 -84.8705
88.696071 64.257 -88.6343
89.338800 64.840 -93.1571
89.986185 65.358 -98.2905
90.638262 65.792 -103.8219
91.295065 66.135 -109.5807
91.956626 66.395 -115.3806
92.622982 66.587 -121.1177
93.294166 66.724 -126.9060
93.970214 66.790 -132.8722
94.651161 66.767 -138.8364
95.337042 66.670 -144.4563
96.027894 66.542 -149.6983
96.723752 66.402 -154.9186
97.424652 66.229 -160.3806
98.130631 66.000 -165.9463
98.841726 65.723 -171.3746
99.557974 65.428 -176.7787
100.279412 65.119 177.3952
101.006078 64.757 170.8800
101.738010 64.302 163.8154
102.475245 63.748 156.3306
103.217823 63.093 148.1582
103.965782 62.294 138.9436
104.719161 61.283 128.7465
105.477999 60.020 117.9739
106.242336 58.521 106.8663
107.012212 56.861 95.0220
107.787666 55.143 81.5126
108.568740 53.509 65.7471
109.355474 52.241 48.5312
110.147909 51.784 32.0636
110.946086 52.345 18.0483
111.750047 53.586 6.4833
112.559834 55.054 -3.1594
113.375489 56.496 -11.3795
114.197055 57.798 -18.6274
115.024574 58.932 -24.8618
115.858089 59.967 -29.4449
116.697645 61.045 -32.1895
117.543284 62.238 -34.3157
118.395051 63.478 -37.3458
119.252990 64.647 -41.6324
120.117147 65.681 -46.6487
120.987565 66.583 -51.7270
121.864291 67.406 -56.3749
122.747370 68.215 -60.5894
123.636848 69.036 -64.8699
124.532771 69.853 -69.5602
125.435187 70.665 -74.5162
126.344142 71.492 -79.7817
127.259684 72.314 -86.0490
128.181860 73.043 -93.8364
129.110718 73.597 -102.8080
130.046308 73.957 -112.3126
130.988677 74.139 -122.0695
131.937875 74.148 -132.1415
132.893951 73.967 -142.6382
133.856956 73.561 -153.4050
134.826938 72.926 -164.0024
135.803950 72.097 -174.4299
136.788041 71.090 174.5146
137.779264 69.848 162.0317
138.777669 68.306 147.4885
139.783309 66.483 129.2371
140.796237 64.689 102.4717
141.816504 63.810 59.4724
142.844165 64.579 12.4709
143.879273 66.298 -19.1255
144.921881 68.017 -40.5962
145.972045 69.376 -57.3346
147.029819 70.347 -71.2482
148.095257 70.949 -83.6486
149.168417 71.148 -95.0836
150.249353 70.938 -104.7007
151.338121 70.415 -111.2047
152.434780 69.789 -113.5442
153.539385 69.357 -112.0460
154.651995 69.316 -109.1525
155.772667 69.608 -107.4186
156.901460 70.054 -107.1266
158.038432 70.556 -107.5171
159.183644 71.073 -108.7213
160.337154 71.562 -110.6979
161.499023 72.037 -112.6979
162.669312 72.556 -114.6205
163.848081 73.108 -117.6411
165.035392 73.563 -122.7106
166.231306 73.789 -129.0392
167.435887 73.767 -135.1349
168.649196 73.566 -140.2578
169.871298 73.282 -144.2318
171.102255 72.986 -147.6542
172.342133 72.668 -151.3804
173.590995 72.248 -155.8387
174.848907 71.601 -161.0605
176.115934 70.598 -165.9249
177.392143 69.208 -167.8553
178.677599 67.589 -164.1650
179.972371 66.114 -154.5964
181.276525 65.336 -139.4426
182.590129 65.852 -119.8024
183.913252 67.569 -103.8805
185.245964 69.695 -97.6147
186.588332 71.614 -99.2843
187.940428 73.057 -105.8831
189.302322 73.951 -114.5878
190.674085 74.363 -122.8965
192.055788 74.421 -129.7096
193.447503 74.242 -134.8535
194.849303 73.946 -137.7386
196.261262 73.722 -137.8167
197.683452 73.753 -136.2618
199.115948 74.058 -135.2455
200.558824 74.537 -135.3774
202.012156 75.128 -136.1641
203.476019 75.807 -137.9084
204.950490 76.512 -141.2635
206.435646 77.144 -146.5331
207.931564 77.615 -153.3102
209.438322 77.871 -161.1125
210.955998 77.863 -169.6783
212.484672 77.542 -178.3641
214.024424 76.921 174.2271
215.575333 76.128 169.3779
217.137481 75.309 165.8833
218.710948 74.426 161.8207
220.295818 73.362 159.3461
221.892172 72.264 161.7548
223.500094 71.568 169.2587
225.119668 71.622 177.2587
226.750978 72.266 -178.9779
228.394109 73.180 -178.2231
230.049147 74.134 179.2212
231.716178 74.897 172.7324
233.395289 75.411 165.3344
235.086567 75.822 158.3567
236.790102 76.164 149.7452
238.505980 76.257 138.1616
240.234293 75.960 126.0009
241.975130 75.398 115.6753
243.728581 74.757 105.4517
245.494739 73.959 92.8612
247.273695 72.747 78.6925
249.065542 70.917 65.7891
250.870374 68.462 60.1066
252.688284 65.930 70.6021
254.519367 64.590 87.0521
256.363720 64.664 89.6655
258.221437 65.072 84.8279
260.092616 65.462 80.2537
261.977354 66.108 77.4539
263.875750 67.147 72.6744
265.787903 68.357 63.5851
267.713911 69.435 49.8417
269.653877 70.231 33.5481
271.607900 70.748 15.7826
273.576083 70.844 -4.9351
275.558528 70.226 -27.8773
277.555338 68.673 -49.0424
279.566619 66.203 -62.8403
281.592474 63.364 -59.8467
283.633009 62.225 -17.9338
285.688331 63.877 2.2571
287.758546 65.818 -7.8773
289.843763 66.842 -24.9092
291.944090 67.004 -40.0068
294.059638 66.616 -52.2135
296.190515 65.724 -64.0911
298.336833 64.218 -72.6398
300.498705 62.271 -71.9513
302.676243 60.591 -58.4565
304.869559 60.159 -42.8411
307.078770 61.221 -27.6841
309.303989 63.070 -18.5751
311.545334 64.675 -22.8832
313.802919 65.475 -34.0631
316.076865 65.562 -42.8923
318.367288 65.700 -41.3101
320.674309 66.487 -37.3013
322.998047 67.207 -46.5446
325.338624 67.067 -60.5991
327.696162 66.149 -68.6925
330.070783 65.002 -70.8617
332.462612 64.068 -70.5979
334.871773 63.561 -69.9542
337.298392 63.171 -78.1885
339.742595 62.151 -96.3384
342.204510 60.466 -117.3408
344.684265 60.013 44.1593
347.181989 61.947 30.5897
349.697813 64.446 21.2573
352.231868 66.595 13.3101
354.784285 68.080 1.3207
357.355198 68.825 -11.7074
359.944741 69.197 -19.5399
362.553049 69.804 -21.6682
365.180258 70.680 -27.1915
367.826505 71.285 -39.0789
370.491927 71.346 -52.0122
373.176665 71.027 -62.4642
375.880856 70.427 -74.1958
378.604644 69.245 -87.5118
381.348169 67.415 -90.7970
384.111575 65.794 -79.0458
386.895006 65.221 -74.0165
389.698607 65.196 -77.4948
392.522524 65.074 -84.1309
395.366904 64.514 -94.3010
398.231895 63.322 -105.3263
401.117648 61.615 -116.8898
404.024312 60.228 -127.5292
406.952038 61.127 -0.5266
409.900981 63.548 -12.7329
412.871292 65.291 -37.4275
415.863128 65.805 -62.3721
418.876643 65.232 -83.4094
421.911996 63.874 -98.3871
424.969344 62.273 -103.9034
428.048847 61.499 -100.3262
431.150666 61.902 -104.8641
434.274961 62.155 -126.8668
437.421897 61.297 -156.5768
440.591636 59.418 174.4988
443.784345 57.783 -119.3325
447.000189 57.651 -106.8331
450.239337 57.611 -143.1826
453.501956 56.368 -177.4694
456.788219 53.975 162.0201
460.098294 51.879 -179.4344
463.432356 51.810 -170.7098
466.790578 52.200 167.6721
470.173135 51.659 145.3073
473.580203 50.248 130.4971
477.011961 49.071 137.1497
480.468586 50.171 170.6527
483.950259 52.671 173.4174
487.457163 54.711 158.7169
490.989478 55.855 139.5687
494.547390 56.163 119.6534
498.131084 55.602 98.5369
501.740748 54.004 78.6937
505.376568 51.477 71.0792
509.038735 49.042 106.7499
512.727439 48.211 118.5146
516.442874 48.113 105.5220
520.185232 47.126 85.6162
523.954708 45.357 92.8789
527.751500 45.671 -170.2671
531.575805 48.619 -129.6509
535.427822 51.198 -145.2599
539.307753 52.284 -170.8145
543.215800 52.087 171.4478
547.152165 52.380 -156.7063
551.117055 54.492 -136.6927
555.110677 56.894 -146.2928
559.133237 58.561 -162.6879
563.184947 59.328 179.3656
567.266018 59.403 163.8937
571.376661 59.077 151.3108
575.517092 58.395 138.0382
579.687526 57.138 126.0896
583.888181 55.543 124.7068
588.119275 54.615 130.8361
592.381030 55.240 151.8679
596.673667 56.696 153.3641
600.997410 57.466 134.2815
605.352485 57.383 117.0275
609.739119 57.918 122.7668
614.157540 59.837 135.5713
618.607979 61.366 115.2219
623.090667 61.695 89.9408
627.605839 61.498 71.8075
632.153730 61.327 53.2128
636.734576 60.723 29.6427
641.348617 59.101 7.5134
645.996094 56.618 4.2291
650.677248 54.705 29.7098
655.392323 54.755 35.3519
660.141566 55.902 32.3763
664.925224 57.192 27.0160
669.743546 57.974 8.6021
674.596784 58.393 -8.7885
679.485191 60.191 70.2068
684.409020 62.514 62.2239
689.368530 63.556 30.7650
694.363979 63.306 5.9902
699.395626 62.697 -8.8485
704.463736 62.385 -22.1040
709.568570 62.352 -37.8031
714.710396 62.121 -62.0127
719.889483 61.200 -94.5830
725.106099 59.982 -138.9934
730.360516 59.665 146.5347
735.653010 60.187 72.6047
740.983855 60.092 22.7168
746.353329 59.049 -8.5703
751.761713 58.592 -0.8608
757.209288 59.950 3.9932
762.696339 61.523 -19.6785
768.223151 62.531 -47.0552
773.790013 63.005 -75.1445
779.397214 63.081 -103.3440
785.045047 62.801 -132.4778
790.733808 62.057 -162.6145
796.463791 60.765 167.6062
802.235296 59.073 137.7520
808.048623 57.340 102.1687
813.904077 56.099 50.1323
819.801961 56.201 -13.3000
825.742584 57.744 -59.1077
831.726255 59.741 -89.1453
837.753287 61.567 -113.3289
843.823992 62.772 -138.6719
849.938689 63.222 -164.0635
856.097695 62.807 170.5894
862.301332 61.577 150.2529
868.549922 60.089 130.8677
874.843793 58.680 106.4963
881.183272 58.214 -160.5806
887.568689 59.184 -172.3462
894.000378 60.239 154.4717
900.478673 60.695 118.5691
907.003913 60.082 77.4829
913.576437 58.044 39.3667
920.196588 55.295 13.2720
926.864712 53.956 -10.0239
933.581156 55.174 -36.7561
940.346270 57.840 -64.4124
947.160407 60.617 -106.5432
954.023921 62.624 -166.8667
960.937172 63.532 124.8901
967.900519 63.109 61.3496
974.914325 61.657 10.0371
981.978956 59.897 -34.7439
989.094780 58.057 -90.2576
996.262169 56.188 148.4043
1003.481495 55.369 80.7292
1010.753136 55.913 53.9163
1018.077470 56.461 33.2598
1025.454879 56.917 21.5940
1032.885748 57.447 9.2341
1040.370463 57.702 -6.8125
1047.909417 57.328 -27.2012
1055.503000 56.147 -44.0764
1063.151610 55.325 -59.1487
1070.855645 55.583 -93.0579
1078.615506 56.089 -145.5188
1086.431599 56.396 -85.8936
1094.304330 56.581 -118.4873
1102.234110 56.929 -166.0852
1110.221353 57.044 154.5176
1118.266475 56.641 134.5068
1126.369895 57.171 147.5083
1134.532035 58.540 131.9055
1142.753322 59.184 101.6641
1151.034184 58.621 68.8760
1159.375052 56.972 37.4180
1167.776361 55.016 8.3389
1176.238550 53.910 -32.4800
1184.762060 53.420 -76.3223
1193.347334 52.905 -111.1055
1201.994821 52.445 -126.4741
1210.704971 53.245 -112.5488
1219.478238 54.616 -114.6094
1228.315080 54.725 -148.4316
1237.215957 54.199 -95.2422
1246.181334 55.131 -41.6777
1255.211678 56.437 -68.9756
1264.307459 57.170 -84.6475
1273.469152 58.113 -88.9575
1282.697235 59.090 -102.6143
1291.992188 59.208 -121.9092
1301.354495 59.067 -117.4951
1310.784647 59.895 -113.4404
1320.283132 60.549 -137.2910
1329.850448 60.608 -162.1387
1339.487093 60.436 170.5562
1349.193569 59.491 138.5859
1358.970381 57.854 120.1196
1368.818041 57.156 113.1440
1378.737061 57.298 88.9863
1388.727958 56.609 57.4629
1398.791253 55.297 39.8262
1408.927471 55.185 111.5376
1419.137140 55.914 99.3521
1429.420793 56.203 90.8882
1439.778965 56.393 79.3013
1450.212197 56.350 56.4224
1460.721033 55.933 31.5244
1471.306019 55.541 41.8828
1481.967709 55.672 35.1006
1492.706658 55.488 -8.7231
1503.523426 55.102 31.6509
1514.418576 54.750 -12.4531
1525.392678 53.816 -50.7651
1536.446302 52.178 -71.2817
1547.580025 50.655 -84.3853
1558.794428 50.996 -81.2095
1570.090095 52.723 -71.1328
1581.467615 54.601 -82.2129
1592.927581 55.840 -117.9893
1604.470591 56.096 178.2378
1616.097246 55.913 42.9487
1627.808153 55.765 -14.6816
1639.603922 55.640 -41.2319
1651.485168 55.612 -58.6704
1663.452510 55.418 -63.9253
1675.506573 56.386 -45.0884
1687.647984 57.783 -71.4502
1699.877377 57.694 -121.2515
1712.195390 56.148 -177.5620
1724.602663 54.192 137.0913
1737.099845 53.016 155.7261
1749.687587 53.312 133.8369
1762.366544 53.850 102.7217
1775.137379 54.384 93.2148
1788.000756 55.386 129.7378
1800.957346 56.148 113.4775
1814.007826 56.338 81.6689
1827.152874 56.348 60.6182
1840.393177 57.014 -164.6963
1853.729425 58.032 159.5435
1867.162312 58.782 131.1499
1880.692540 58.708 98.1011
1894.320813 57.143 59.3687
1908.047843 54.960 22.8042
1921.874344 53.331 -16.5483
1935.801038 52.617 -37.2466
1949.828650 53.215 -48.1572
1963.957912 54.698 -63.6743
1978.189561 56.201 -82.6655
1992.524338 57.112 -88.0244
2006.962991 57.526 -113.4331
2021.506272 57.261 16.4341
2036.154940 57.103 -22.7637
2050.909758 57.422 -62.0674
2065.771495 57.128 -100.9927
2080.740927 56.861 -112.0664
2095.818833 58.035 -113.5000
2111.006001 59.473 -145.3857
2126.303220 59.900 179.0596
2141.711290 59.824 156.1187
2157.231013 59.891 136.4453
2172.863198 59.326 113.6743
2188.608660 58.658 92.2046
2204.468221 58.138 68.5732
2220.442706 57.763 74.5288
2236.532950 57.408 52.0312
2252.739789 57.865 45.8975
2269.064070 59.480 39.2578
2285.506644 60.410 5.2412
2302.068367 59.814 -26.1309
2318.750104 58.987 -35.6841
2335.552723 59.080 -48.3613
2352.477101 59.094 -77.4204
2369.524119 58.760 -103.7480
2386.694668 58.710 -105.2725
2403.989641 58.829 -134.2168
2421.409941 57.965 -173.0723
2438.956476 56.173 165.9399
2456.630160 55.077 -168.9341
2474.431915 56.286 -155.4741
2492.362668 58.355 -169.4780
2510.423356 59.360 160.3252
2528.614918 58.937 128.9424
2546.938304 58.327 110.2871
2565.394469 58.604 90.7734
2583.984375 58.437 54.2349
2602.708991 57.519 29.5898
2621.569293 56.858 20.9575
2640.566265 56.616 16.8125
2659.700897 57.124 26.2515
2678.974186 58.470 29.2642
2698.387137 58.836 1.8062
2717.940763 57.977 -22.4468
2737.636082 56.665 -88.3169
2757.474121 55.248 73.6431
2777.455915 54.712 -3.5488
2797.582506 56.016 -89.7856
2817.854942 58.343 -119.5000
2838.274281 59.678 -151.4180
2858.841586 59.396 -155.3418
2879.557931 58.707 -151.8071
2900.424394 58.831 -173.4316
2921.442065 59.852 -59.3315
2942.612039 60.277 -92.8120
2963.935418 59.776 -107.2700
2985.413316 58.822 -7.7881
3007.046852 58.075 6.9014
3028.837153 57.621 -1.7642
3050.785356 57.117 -1.7134
3072.892604 57.158 4.3291
3095.160050 57.900 -6.8896
3117.588856 58.765 -40.4380
3140.180190 58.595 -101.9038
3162.935230 57.494 -156.1479
3185.855163 56.540 -174.6309
3208.941182 56.490 -143.9639
3232.194493 57.597 -144.1025
3255.616307 58.510 -172.9917
3279.207844 58.379 133.4609
3302.970336 57.534 38.7783
3326.905021 56.710 16.5122
3351.013146 56.757 22.9346
3375.295969 57.117 12.3462
3399.754755 57.463 19.9629
3424.390779 57.279 7.5474
3449.205326 56.276 -2.0591
3474.199690 55.870 131.6372
3499.375173 56.262 110.3965
3524.733088 56.313 116.1484
3550.274757 56.189 155.2964
3576.001511 56.064 169.6011
3601.914692 56.100 -170.0981
3628.015651 56.666 -128.6768
3654.305748 57.007 -135.2568
3680.786354 56.352 -157.0410
3707.458849 55.046 160.0557
3734.324624 54.080 39.1860
3761.385080 54.063 22.7422
3788.641627 55.382 53.0264
3816.095686 56.984 57.9292
3843.748688 57.968 53.4795
3871.602076 58.248 23.0796
3899.657300 57.403 -36.2803
3927.915825 56.084 -101.5664
3956.379122 55.834 -137.1309
3985.048676 56.028 -128.0142
4013.925981 56.257 -112.2080
4043.012544 56.709 -138.4946
4072.309879 57.057 161.3687
4101.819515 57.626 83.8281
4131.542990 58.167 32.8726
4161.481854 58.427 25.4634
4191.637667 57.951 57.8169
4222.012001 56.796 23.2598
4252.606441 55.767 -15.5674
4283.422580 55.878 -61.7593
4314.462026 55.632 -123.6621
4345.726396 54.040 -158.0386
4377.217321 53.086 -31.7651
4408.936442 54.055 -36.3286
4440.885413 54.909 -62.3091
4473.065899 55.382 -37.1167
4505.479579 55.961 -82.8574
4538.128141 56.681 175.7646
4571.013288 56.621 103.6367
4604.136735 56.003 160.0562
4637.500207 56.285 -50.0864
4671.105446 56.648 -108.6011
4704.954201 57.165 135.6108
4739.048239 57.949 -0.4062
4773.389336 58.149 -55.2959
4807.979283 57.991 -25.7241
4842.819883 58.465 -54.5537
4877.912952 59.532 -117.5801
4913.260320 61.256 -157.2944
4948.863830 62.831 165.1138
4984.725337 63.354 111.8374
5020.846712 63.084 53.1206
5057.229836 62.952 8.2407
5093.876609 62.802 -28.3110
5130.788938 61.590 -64.5015
5167.968750 59.481 -101.8833
5205.417982 58.108 -158.0200
5243.138586 58.346 166.2461
5281.132530 58.875 152.2480
5319.401793 58.543 120.0107
5357.948371 57.431 80.6226
5396.774274 56.629 31.6792
5435.881525 56.925 13.0962
5475.272163 58.350 15.0903
5514.948243 59.992 -11.8521
5554.911831 61.195 -59.0996
5595.165012 62.564 -114.6079
5635.709884 63.860 -168.9814
5676.548561 64.082 142.9785
5717.683172 63.449 97.5776
5759.115861 62.537 50.1875
5800.848789 62.246 9.6167
5842.884130 62.458 -28.0552
5885.224077 62.099 -72.1011
5927.870837 61.028 -114.3379
5970.826633 59.892 -143.9346
6014.093704 59.628 -165.2168
6057.674306 60.031 155.3301
6101.570711 60.033 106.4922
6145.785208 60.006 63.5859
6190.320101 60.437 13.7734
6235.177712 60.663 -48.1514
6280.360380 60.079 -108.7119
6325.870460 58.891 -153.2764
6371.710325 57.841 -166.4238
6417.882365 57.684 152.2217
6464.388986 58.078 97.1602
6511.232613 58.316 47.0654
6558.415689 58.417 3.9941
6605.940673 58.533 -49.0938
6653.810042 58.781 -109.8174
6702.026292 58.306 173.7568
6750.591937 56.753 76.8301
6799.509509 55.035 -21.8428
6848.781558 54.729 159.3379
6898.410653 55.823 120.2432
6948.399380 56.543 61.4893
6998.750346 56.245 -4.1846
7049.466176 55.765 -52.9746
7100.549514 55.297 -101.5410
7152.003023 54.865 -143.5879
7203.829385 55.476 -171.5322
7256.031302 56.114 145.3877
7308.611496 55.729 88.0781
7361.572708 55.569 19.9814
7414.917698 56.089 -35.7422
7468.649249 56.196 -84.2881
7522.770160 55.904 -121.4785
7577.283253 56.865 -152.2666
7632.191371 58.448 155.8770
7687.497376 59.430 100.8838
7743.204151 59.837 44.6670
7799.314600 59.739 -16.3672
7855.831649 59.106 -84.7051
7912.758244 57.947 -152.6260
7970.097352 57.029 150.4746
8027.851962 56.330 84.7842
8086.025087 55.538 53.4043
8144.619758 55.837 16.8311
8203.639030 56.458 -53.7080
8263.085980 56.063 -117.0400
8322.963708 55.469 -151.7686
8383.275334 55.635 148.9912
8444.024002 56.435 85.3369
8505.212881 57.506 39.3760
8566.845160 58.311 -26.7207
8628.924051 58.418 -98.0469
8691.452792 57.895 -156.5703
8754.434642 57.164 141.8984
8817.872884 56.901 78.8730
8881.770826 56.572 16.8643
8946.131799 55.995 -53.7656
9010.959157 55.782 -119.4062
9076.256282 55.396 168.9189
9142.026576 54.506 70.3906
9208.273470 53.688 -10.6426
9275.000415 52.511 -94.5732
9342.210891 51.344 -178.3545
9409.908403 51.184 129.1201
9478.096478 51.706 -76.6162
9546.778672 52.511 -178.1465
9615.958566 52.802 90.3916
9685.639765 53.115 7.2168
9755.825904 54.259 -83.9531
9826.520640 54.993 151.6201
9897.727659 54.465 36.2607
9969.450674 53.508 -53.0527
10041.693423 52.771 -129.4727
10114.459673 51.560 146.0186
10187.753217 50.116 58.1689
10261.577877 49.779 -18.6436
10335.937500 50.220 -89.5703
10410.835964 50.905 -177.2510
10486.277173 51.008 100.8848
10562.265060 50.788 24.8887
10638.803587 50.461 -55.5801
10715.896743 50.323 -78.2822
10793.548548 50.877 -162.5557
10871.763050 51.537 111.1562
10950.544327 52.144 46.5684
11029.896485 52.587 -13.3691
11109.823662 53.014 -73.5322
11190.330024 53.601 -152.9414
11271.419768 53.714 116.4443
11353.097122 53.079 25.2910
11435.366344 52.075 -48.6572
11518.231722 51.857 -117.7344
11601.697577 52.483 164.9609
11685.768261 53.202 84.0645
11770.448155 53.358 2.5146
11855.741674 53.397 -77.0322
11941.653265 53.441 -161.2549
12028.187408 53.224 107.0410
12115.348612 52.756 13.9512
12203.141422 51.894 -77.3848
12291.570415 50.730 -153.7051
12380.640201 50.124 154.3594
12470.355424 50.322 90.6348
12560.720760 50.804 10.9209
12651.740920 50.997 -83.8457
12743.420650 50.446 178.7412
12835.764729 49.557 79.6396
12928.777972 48.723 -20.2178
13022.465227 47.636 -90.3760
13116.831378 47.264 -132.0479
13211.881345 48.528 147.0693
13307.620084 49.985 55.1816
13404.052584 50.638 -42.3311
13501.183875 50.562 -139.4717
13599.019019 49.699 128.9805
13697.563116 48.996 43.5332
13796.821305 49.546 -39.5420
13896.798760 50.717 -133.7646
13997.500692 51.716 126.4756
14098.932352 52.194 25.3223
14201.099028 51.876 -74.0977
14304.006046 51.295 -173.9785
14407.658770 50.832 80.1367
14512.062604 50.859 -24.3086
14617.222992 51.080 -131.0762
14723.145416 50.818 118.3711
14829.835397 49.762 0.5098
14937.298497 47.926 -118.1680
15045.540320 45.887 146.2715
15154.566507 45.029 98.5762
15264.382743 44.994 2.0215
15374.994752 44.925 -97.7832
15486.408302 44.777 -155.6719
15598.629201 44.327 107.3574
15711.663298 43.436 -51.3379
15825.516487 42.869 148.7793
15940.194703 42.974 -111.6797
16055.703925 42.793 117.5938
16172.050174 42.590 -1.3496
16289.239516 42.217 -120.4863
16407.278061 42.110 113.5801
16526.171961 42.546 -0.6953
16645.927415 43.765 -78.6836
16766.550667 44.975 172.0820
16888.048005 45.479 51.4492
17010.425762 45.260 -77.7207
17133.690320 44.138 143.3867
17257.848103 42.452 15.1289
17382.905584 41.684 -64.5098
17508.869284 42.492 -151.8555
17635.745768 43.236 85.6641
17763.541652 42.924 -47.0156
17892.263597 42.158 -173.0879
18021.918315 41.827 69.8770
18152.512564 41.623 -53.9551
18284.053153 40.986 174.2891
18416.546939 40.209 42.2871
18550.000830 39.583 -88.4590
18684.421783 38.740 147.1152
18819.816805 37.852 41.8555
18956.192956 37.255 -74.5039
19093.557344 36.137 146.2422
19231.917131 34.415 8.0039
19371.279531 32.985 -120.7305
19511.651807 31.948 109.3945
19653.041280 30.918 -13.4824
19795.455318 30.119 -133.9434
19938.901348 29.716 84.0664
