* Measurement data measured by REW V5.31
* Source: Scarlett 2i4 USB, MICROPHONE, R, volume: no control. Timing signal peak level -31.1 dBFS, measurement signal peak level -24.4 dBFS
* Format: 512k Log Swept Sine, 1 sweep at -18.0 dBFS using an acoustic timing reference
* Dated: Apr 16, 2024 3:44:07 PM
* REW Settings:
*  C-weighting compensation: Off
*  Target level: 75.0 dB
* Note: ; Delay -1.7565 ms (-602 mm, -(1 ft 11.72 in)) using estimated IR delay relative to Acoustic reference played from SPEAKER L with no timing offset
* Measurement: screen-p3-c
* Smoothing: 1/48 octave
* Frequency Step: 96 ppo
* Start Frequency: 10.093689 Hz
*
* Freq(Hz) SPL(dB) Phase(degrees)
10.093689 27.063 15.8460
10.166832 27.219 12.9533
10.240505 27.408 10.0268
10.314712 27.602 7.1926
10.389457 27.791 4.5721
10.464743 27.953 2.2370
10.540575 28.068 -0.0262
10.616956 28.155 -2.1743
10.693891 28.221 -4.0848
10.771383 28.270 -5.6200
10.849437 28.295 -6.8215
10.928057 28.299 -7.7658
11.007246 28.303 -8.3947
11.087009 28.326 -8.6356
11.167350 28.374 -8.4116
11.248273 28.437 -7.7432
11.329783 28.537 -6.7462
11.411883 28.704 -5.5577
11.494578 28.956 -4.2248
11.577873 29.287 -2.6228
11.661771 29.686 -1.0400
11.746277 30.141 0.2339
11.831395 30.654 1.0976
11.917130 31.231 1.8028
12.003487 31.846 2.1774
12.090469 32.466 2.0650
12.178081 33.076 1.4599
12.266329 33.689 0.5749
12.355216 34.290 -0.5931
12.444747 34.862 -2.0684
12.534926 35.400 -3.8611
12.625760 35.908 -5.8758
12.717251 36.382 -8.0236
12.809406 36.818 -10.2655
12.902228 37.213 -12.7050
12.995723 37.570 -15.2558
13.089895 37.888 -17.7879
13.184750 38.167 -20.2849
13.280292 38.406 -22.8901
13.376526 38.607 -25.4686
13.473458 38.774 -27.8792
13.571093 38.903 -30.2312
13.669434 38.998 -32.5425
13.768489 39.066 -34.6852
13.868261 39.108 -36.5930
13.968756 39.124 -38.3685
14.069979 39.124 -39.9726
14.171936 39.118 -41.3396
14.274632 39.103 -42.4645
14.378072 39.087 -43.4024
14.482261 39.082 -44.2001
14.587206 39.091 -44.8020
14.692910 39.113 -45.2508
14.799381 39.151 -45.6715
14.906624 39.208 -46.0831
15.014643 39.280 -46.4526
15.123446 39.357 -46.8606
15.233036 39.432 -47.3673
15.343421 39.507 -47.9328
15.454606 39.566 -48.4998
15.566596 39.601 -49.0803
15.679398 39.613 -49.6912
15.793018 39.600 -50.1611
15.907460 39.556 -50.4226
16.022732 39.485 -50.5251
16.138840 39.407 -50.2990
16.255788 39.325 -49.6353
16.373585 39.252 -48.5831
16.492234 39.229 -47.1809
16.611744 39.270 -45.3578
16.732119 39.383 -43.2716
16.853367 39.587 -41.2897
16.975494 39.891 -39.3586
17.098505 40.269 -37.7206
17.222408 40.691 -36.6779
17.347209 41.154 -36.0909
17.472914 41.621 -35.9963
17.599530 42.063 -36.4437
17.727063 42.477 -37.3046
17.855521 42.844 -38.3961
17.984909 43.156 -39.7855
18.115235 43.414 -41.2971
18.246506 43.616 -42.7286
18.378727 43.762 -44.1965
18.511907 43.867 -45.4537
18.646052 43.933 -46.4523
18.781169 43.973 -47.2091
18.917265 44.009 -47.5831
19.054347 44.046 -47.5952
19.192423 44.110 -47.3035
19.331499 44.213 -46.6764
19.471583 44.363 -45.8247
19.612682 44.575 -44.8877
19.754804 44.846 -43.8628
19.897956 45.175 -42.9607
20.042144 45.559 -42.1605
20.187378 45.989 -41.6010
20.333664 46.459 -41.3001
20.481010 46.961 -41.2897
20.629424 47.484 -41.6621
20.778913 48.022 -42.3423
20.929486 48.560 -43.4530
21.081150 49.093 -44.9065
21.233912 49.602 -46.7153
21.387782 50.079 -48.8839
21.542767 50.511 -51.2593
21.698874 50.889 -53.8877
21.856113 51.205 -56.5796
22.014492 51.455 -59.2546
22.174018 51.640 -61.8422
22.334700 51.764 -64.0787
22.496546 51.840 -66.0121
22.659566 51.893 -67.3404
22.823766 51.944 -68.1424
22.989157 52.041 -68.3629
23.155745 52.203 -68.0785
23.323542 52.463 -67.6544
23.492554 52.819 -67.1451
23.662790 53.248 -67.0447
23.834261 53.728 -67.2825
24.006973 54.205 -68.0294
24.180938 54.661 -69.1244
24.356163 55.065 -70.3577
24.532658 55.422 -71.6017
24.710431 55.742 -72.4751
24.889493 56.063 -72.9827
25.069853 56.433 -72.8654
25.251519 56.904 -72.4921
25.434502 57.517 -71.9156
25.618811 58.264 -71.9280
25.804456 59.129 -72.5803
25.991445 60.034 -74.4797
26.179790 60.939 -77.3753
26.369500 61.774 -81.3999
26.560584 62.515 -86.2099
26.753053 63.128 -91.7310
26.946917 63.604 -97.5750
27.142185 63.932 -103.7780
27.338869 64.111 -109.7840
27.536977 64.143 -115.7325
27.736522 64.044 -121.0127
27.937512 63.836 -125.6774
28.139959 63.557 -129.2789
28.343872 63.279 -131.8565
28.549264 63.063 -133.2710
28.756143 62.994 -134.0430
28.964522 63.090 -134.6143
29.174411 63.345 -135.5786
29.385821 63.676 -137.4582
29.598763 64.018 -140.2274
29.813248 64.291 -143.8990
30.029287 64.454 -148.0028
30.246891 64.482 -152.4314
30.466073 64.372 -156.5869
30.686842 64.144 -160.2363
30.909212 63.831 -163.0696
31.133193 63.503 -164.8016
31.358797 63.232 -165.5796
31.586035 63.082 -165.5192
31.814921 63.087 -165.3485
32.045465 63.215 -165.4789
32.277680 63.417 -166.2133
32.511577 63.617 -167.6291
32.747169 63.775 -169.4227
32.984469 63.873 -171.3883
33.223488 63.918 -173.1816
33.464239 63.949 -174.6117
33.706735 64.002 -175.7001
33.950987 64.113 -176.5213
34.197010 64.298 -177.4120
34.444816 64.540 -178.6321
34.694417 64.813 179.6805
34.945827 65.079 177.4462
35.199059 65.308 174.7621
35.454126 65.484 171.7739
35.711041 65.600 168.5951
35.969818 65.659 165.3395
36.230470 65.666 162.1013
36.493011 65.624 158.9127
36.757455 65.536 155.8010
37.023814 65.402 152.7965
37.292104 65.220 149.9527
37.562338 64.992 147.3522
37.834530 64.722 145.0730
38.108695 64.422 143.1912
38.384846 64.105 141.7730
38.662999 63.789 140.8529
38.943167 63.495 140.4042
39.225365 63.240 140.3441
39.509608 63.032 140.5369
39.795911 62.868 140.8234
40.084289 62.730 141.0812
40.374756 62.583 141.3146
40.667328 62.396 141.7811
40.962020 62.173 143.0480
41.258848 61.990 145.8087
41.557827 62.018 150.4168
41.858972 62.441 156.1314
42.162299 63.308 161.0058
42.467824 64.468 163.2373
42.775564 65.679 162.3337
43.085533 66.758 158.8181
43.397749 67.613 153.5249
43.712227 68.215 147.2540
44.028983 68.570 140.6676
44.348036 68.705 134.2840
44.669400 68.668 128.4845
44.993093 68.517 123.4902
45.319131 68.313 119.3229
45.647532 68.104 115.8081
45.978313 67.912 112.6633
46.311491 67.726 109.6520
46.647083 67.525 106.7012
46.985107 67.290 103.9091
47.325581 67.022 101.4552
47.668521 66.745 99.4761
48.013947 66.490 97.9697
48.361876 66.284 96.7830
48.712326 66.135 95.6921
49.065315 66.033 94.5121
49.420863 65.961 93.1508
49.778987 65.902 91.5853
50.139706 65.845 89.8132
50.503039 65.777 87.8361
50.869005 65.682 85.6819
51.237623 65.549 83.4332
51.608912 65.371 81.2192
51.982891 65.155 79.1613
52.359580 64.913 77.3033
52.739000 64.655 75.5931
53.121168 64.373 73.9578
53.506106 64.047 72.4430
53.893833 63.665 71.3006
54.284370 63.241 70.9515
54.677737 62.845 71.7548
55.073955 62.579 73.6122
55.473043 62.515 75.7668
55.875024 62.631 77.2387
56.279917 62.827 77.5409
56.687745 63.003 76.8577
57.098527 63.108 75.7552
57.512287 63.155 74.7716
57.929045 63.192 74.1656
58.348822 63.269 73.8998
58.771642 63.420 73.7556
59.197525 63.661 73.4608
59.626495 63.990 72.7279
60.058573 64.384 71.2585
60.493782 64.798 68.8173
60.932145 65.171 65.4000
61.373685 65.462 61.2344
61.818424 65.652 56.6690
62.266386 65.755 51.9932
62.717593 65.793 47.3025
63.172071 65.779 42.5649
63.629842 65.714 37.7678
64.090930 65.596 33.0099
64.555359 65.442 28.4641
65.023154 65.292 24.1735
65.494339 65.180 19.9357
65.968938 65.113 15.3983
66.446976 65.066 10.3545
66.928478 65.015 4.8430
67.413469 64.958 -0.9968
67.901975 64.914 -7.1501
68.394021 64.899 -13.7663
68.889632 64.909 -20.9902
69.388835 64.936 -28.7999
69.891655 64.996 -37.0826
70.398118 65.130 -45.8715
70.908252 65.365 -55.4996
71.422083 65.671 -66.4688
71.939636 65.959 -79.0076
72.460941 66.118 -92.8330
72.986023 66.065 -107.3005
73.514909 65.767 -121.3815
74.047629 65.259 -134.0460
74.584208 64.664 -144.3490
75.124676 64.179 -152.0806
75.669061 63.980 -158.0587
76.217390 64.092 -163.8655
76.769692 64.385 -170.4817
77.325997 64.707 -178.0266
77.886333 64.958 173.8967
78.450730 65.097 165.7280
79.019216 65.117 157.8335
79.591822 65.036 150.4980
80.168577 64.883 143.8317
80.749512 64.682 137.7795
81.334656 64.440 132.1686
81.924040 64.137 126.8768
82.517696 63.743 121.9983
83.115653 63.240 117.9003
83.717943 62.646 115.1540
84.324598 62.039 114.2651
84.935649 61.544 115.3499
85.551128 61.291 117.9362
86.171066 61.353 121.0215
86.795497 61.701 123.4842
87.424453 62.230 124.7260
88.057967 62.850 124.9980
88.696071 63.561 125.0072
89.338800 64.448 125.1172
89.986185 65.588 124.7332
90.638262 66.951 122.6235
91.295065 68.418 117.9166
91.956626 69.864 110.3719
92.622982 71.176 99.9398
93.294166 72.236 86.6466
93.970214 72.921 70.8799
94.651161 73.134 53.5275
95.337042 72.832 35.8430
96.027894 72.049 19.1864
96.723752 70.901 4.6494
97.424652 69.571 -7.4196
98.130631 68.243 -17.5439
98.841726 67.050 -26.5667
99.557974 66.078 -35.2657
100.279412 65.367 -44.5098
101.006078 64.887 -54.9698
101.738010 64.583 -66.6685
102.475245 64.441 -79.3300
103.217823 64.454 -92.9641
103.965782 64.551 -107.6557
104.719161 64.607 -122.9502
105.477999 64.542 -137.8149
106.242336 64.368 -151.1747
107.012212 64.162 -162.5134
107.787666 64.004 -171.9664
108.568740 63.937 -179.8712
109.355474 63.994 173.5647
110.147909 64.221 168.0093
110.946086 64.634 162.6467
111.750047 65.169 156.4779
112.559834 65.710 148.9714
113.375489 66.144 140.1389
114.197055 66.392 130.2855
115.024574 66.402 119.8691
115.858089 66.157 109.4033
116.697645 65.655 99.2462
117.543284 64.890 89.7023
118.395051 63.849 81.3459
119.252990 62.567 75.2976
120.117147 61.203 72.7917
120.987565 60.053 73.2810
121.864291 59.298 72.9932
122.747370 58.728 69.3159
123.636848 58.004 63.1062
124.532771 56.918 55.4397
125.435187 55.290 47.4694
126.344142 53.035 44.5568
127.259684 50.803 61.4163
128.181860 50.390 87.7026
129.110718 51.764 88.6807
130.046308 53.454 74.6991
130.988677 55.126 51.4963
131.937875 56.990 21.7151
132.893951 59.214 -9.2185
133.856956 61.728 -36.2738
134.826938 64.301 -59.2004
135.803950 66.632 -80.8319
136.788041 68.421 -103.3164
137.779264 69.488 -126.0223
138.777669 69.866 -146.5951
139.783309 69.785 -163.1552
140.796237 69.512 -175.8732
141.816504 69.174 173.8494
142.844165 68.770 165.3345
143.879273 68.301 158.7653
144.921881 67.835 154.5175
145.972045 67.500 152.3210
147.029819 67.394 151.1450
148.095257 67.565 150.4940
149.168417 68.057 149.8759
150.249353 68.808 147.5441
151.338121 69.610 142.2698
152.434780 70.258 134.4346
153.539385 70.633 124.9862
154.651995 70.695 115.0156
155.772667 70.495 105.6708
156.901460 70.158 97.4019
158.038432 69.793 89.4050
159.183644 69.381 80.3734
160.337154 68.788 69.9878
161.499023 67.880 59.2173
162.669312 66.636 49.9047
163.848081 65.231 43.4507
165.035392 63.937 37.4401
166.231306 62.727 27.8771
167.435887 61.268 15.1798
168.649196 59.358 1.6942
169.871298 57.035 -12.3129
171.102255 54.464 -28.2616
172.342133 51.977 -47.3660
173.590995 50.353 -67.4639
174.848907 50.888 -78.6630
176.115934 53.663 -79.2435
177.392143 57.041 -83.3762
178.677599 60.084 -93.3979
179.972371 62.597 -106.5243
181.276525 64.638 -120.4087
182.590129 66.334 -134.1555
183.913252 67.744 -148.3967
185.245964 68.825 -164.1444
186.588332 69.461 177.9806
187.940428 69.530 158.2604
189.302322 68.956 137.2510
190.674085 67.721 114.6038
192.055788 65.909 87.2867
193.447503 64.040 39.8381
194.849303 63.530 -59.3473
196.261262 64.830 -103.8330
197.683452 66.588 -125.9731
199.115948 68.094 -141.7905
200.558824 69.313 -154.5352
202.012156 70.275 -166.6602
203.476019 70.833 179.6348
204.950490 70.802 165.3848
206.435646 70.188 153.7534
207.931564 69.231 147.0762
209.438322 68.283 144.6743
210.955998 67.590 144.3657
212.484672 67.188 144.1851
214.024424 66.945 142.9736
215.575333 66.746 141.8691
217.137481 66.589 140.9722
218.710948 66.405 138.7964
220.295818 66.186 137.9294
221.892172 66.184 139.5444
223.500094 66.485 138.8926
225.119668 66.804 133.8599
226.750978 66.825 125.0308
228.394109 66.250 112.4053
230.049147 64.804 98.9768
231.716178 62.709 101.7437
233.395289 61.539 157.7954
235.086567 62.123 165.8032
236.790102 62.847 157.9695
238.505980 63.187 154.5293
240.234293 63.638 156.8660
241.975130 64.195 154.3213
243.728581 64.274 145.6670
245.494739 63.549 137.1045
247.273695 62.194 136.6484
249.065542 61.167 154.2412
250.870374 61.526 171.9858
252.688284 62.709 176.9258
254.519367 63.902 176.9775
256.363720 64.841 174.3542
258.221437 65.518 170.9712
260.092616 66.182 170.2202
261.977354 67.003 168.7834
263.875750 67.740 162.9285
265.787903 68.116 154.1367
267.713911 68.007 144.1851
269.653877 67.405 134.9016
271.607900 66.346 125.6978
273.576083 64.756 116.2180
275.558528 63.196 126.4307
277.555338 63.723 -166.3276
279.566619 66.014 -161.1797
281.592474 68.262 -169.7397
283.633009 70.096 -179.8550
285.688331 71.478 167.4319
287.758546 72.260 151.2380
289.843763 72.311 133.1738
291.944090 71.597 115.3540
294.059638 70.119 99.4797
296.190515 67.912 87.5728
298.336833 65.099 80.2900
300.498705 62.226 88.4968
302.676243 61.435 162.9255
304.869559 63.267 175.4097
307.078770 65.398 167.4060
309.303989 67.119 157.0723
311.545334 68.371 143.7903
313.802919 68.935 125.3188
316.076865 68.465 102.8845
318.367288 66.721 82.4543
320.674309 63.740 74.8000
322.998047 60.102 94.3599
325.338624 57.535 132.3179
327.696162 57.362 146.1743
330.070783 58.241 149.0396
332.462612 59.490 151.8171
334.871773 61.316 158.7832
337.298392 63.258 156.0071
339.742595 64.406 138.7261
342.204510 64.345 115.8594
344.684265 63.080 93.5791
347.181989 61.243 87.0347
349.697813 60.763 159.6519
352.231868 62.042 155.3247
354.784285 63.231 135.0405
357.355198 63.629 113.7429
359.944741 63.425 95.1799
362.553049 63.148 79.3267
365.180258 63.030 60.8342
367.826505 62.668 36.8218
370.491927 61.677 12.5188
373.176665 60.536 -0.8918
375.880856 60.867 -3.0283
378.604644 62.795 -13.8679
381.348169 64.845 -33.9324
384.111575 66.110 -61.0227
386.895006 66.241 -89.7820
389.698607 65.411 -112.7175
392.522524 64.318 -127.7766
395.366904 63.641 -141.8379
398.231895 63.387 -160.3303
401.117648 63.173 174.0393
404.024312 62.609 139.5012
406.952038 61.574 98.2246
409.900981 60.787 59.8706
412.871292 61.220 29.8225
415.863128 62.252 3.3083
418.876643 63.311 -15.6169
421.911996 64.424 -30.2161
424.969344 65.164 -47.2786
428.048847 65.255 -63.0952
431.150666 64.907 -74.2246
434.274961 64.321 -83.6672
437.421897 63.367 -92.7683
440.591636 62.217 -94.9712
443.784345 62.356 -71.7986
447.000189 64.595 -45.9304
450.239337 67.074 -51.0078
453.501956 68.688 -66.8584
456.788219 69.280 -84.7390
460.098294 69.170 -97.2190
463.432356 69.142 -101.8188
466.790578 69.343 -111.5237
470.173135 69.045 -126.7622
473.580203 68.053 -136.3276
477.011961 67.196 -134.4307
480.468586 67.025 -138.6746
483.950259 66.682 -152.4424
487.457163 65.525 -166.2437
490.989478 63.615 -173.2466
494.547390 61.658 -161.8877
498.131084 61.044 -149.6992
501.740748 61.920 -146.3604
505.376568 63.142 -150.8132
509.038735 63.422 -169.1116
512.727439 62.556 177.4492
516.442874 62.344 -172.2175
520.185232 64.304 -163.4771
523.954708 66.545 -178.2139
527.751500 67.555 154.4927
531.575805 67.126 129.7827
535.427822 66.175 119.2417
539.307753 65.973 112.3369
543.215800 66.748 103.9412
547.152165 68.180 95.4434
551.117055 69.609 81.2683
555.110677 70.282 60.5388
559.133237 69.968 40.8159
563.184947 69.039 27.9204
567.266018 68.172 21.9868
571.376661 67.812 17.4482
575.517092 67.649 8.9668
579.687526 67.327 0.5508
583.888181 66.754 -9.0603
588.119275 65.772 -18.5527
592.381030 64.652 -20.7744
596.673667 64.176 -17.1475
600.997410 63.963 -30.7285
605.352485 63.047 -56.3665
609.739119 62.796 -126.7732
614.157540 64.970 100.2297
618.607979 67.296 71.6362
623.090667 68.356 44.6792
627.605839 68.238 23.5649
632.153730 67.434 10.4058
636.734576 66.877 10.1289
641.348617 67.799 21.0310
645.996094 69.507 15.2910
650.677248 70.612 -3.4324
655.392323 70.514 -27.2041
660.141566 69.017 -47.3625
664.925224 66.501 -54.0356
669.743546 63.933 -54.9695
674.596784 62.100 -51.4941
679.485191 61.737 -35.9971
684.409020 62.427 -43.0457
689.368530 62.899 -61.9622
694.363979 63.052 -82.5068
699.395626 63.200 -106.2422
704.463736 63.351 -133.1589
709.568570 63.730 -158.4949
714.710396 64.055 174.2393
719.889483 63.693 148.7188
725.106099 63.077 134.0164
730.360516 63.674 139.6755
735.653010 65.286 141.1958
740.983855 66.089 120.0166
746.353329 65.915 105.3733
751.761713 66.225 133.0242
757.209288 67.108 129.7114
762.696339 67.151 108.4995
768.223151 66.415 97.2200
773.790013 66.550 116.2346
779.397214 67.831 120.6958
785.045047 68.662 103.8081
790.733808 68.653 84.8682
796.463791 67.841 64.6968
802.235296 66.400 48.9839
808.048623 65.282 109.4692
813.904077 65.256 120.2747
819.801961 65.476 105.6396
825.742584 65.427 91.7703
831.726255 64.578 75.8569
837.753287 62.751 68.1794
843.823992 61.652 100.6270
849.938689 63.259 131.8342
856.097695 65.740 124.5781
862.301332 67.816 106.0698
868.549922 69.286 79.0864
874.843793 70.036 41.6855
881.183272 69.851 -8.5913
887.568689 68.828 -67.7239
894.000378 67.884 -110.6794
900.478673 68.634 -124.6455
907.003913 70.116 -151.7029
913.576437 70.813 174.2075
920.196588 70.253 141.4963
926.864712 68.458 122.0339
933.581156 66.431 115.5850
940.346270 64.865 123.6785
947.160407 63.706 155.4587
954.023921 63.197 -176.8035
960.937172 63.392 -179.8235
967.900519 63.504 154.7285
974.914325 62.958 121.7100
981.978956 62.086 64.4607
989.094780 61.654 -91.8174
996.262169 62.616 -103.7808
1003.481495 64.461 -118.0415
1010.753136 65.829 -147.0044
1018.077470 66.685 -175.9858
1025.454879 67.886 -63.4868
1032.885748 69.165 -92.4565
1040.370463 69.439 -123.5732
1047.909417 68.488 -146.2734
1055.503000 67.033 -156.3516
1063.151610 66.480 -148.5513
1070.855645 66.870 -150.2036
1078.615506 66.407 -164.1987
1086.431599 65.101 -170.8496
1094.304330 63.822 -178.6484
1102.234110 62.361 172.8911
1110.221353 60.540 -169.5405
1118.266475 59.338 -154.2539
1126.369895 59.371 -151.1255
1134.532035 60.072 -156.3599
1142.753322 61.068 -159.8774
1151.034184 62.328 178.1313
1159.375052 63.515 34.6035
1167.776361 64.758 -66.5200
1176.238550 65.912 -106.6172
1184.762060 66.589 -145.3462
1193.347334 65.998 172.7871
1201.994821 63.842 131.6274
1210.704971 60.563 93.7119
1219.478238 57.154 70.0039
1228.315080 55.652 73.4087
1237.215957 56.227 55.6255
1246.181334 56.834 32.7378
1255.211678 57.224 10.9248
1264.307459 56.735 -18.1729
1273.469152 55.295 -31.8281
1282.697235 54.648 64.2104
1291.992188 56.107 65.0664
1301.354495 58.476 67.5625
1310.784647 59.973 49.4819
1320.283132 60.197 30.5903
1329.850448 60.447 25.1475
1339.487093 61.066 13.9790
1349.193569 60.944 -5.4814
1358.970381 60.622 -24.4409
1368.818041 60.310 -55.2021
1378.737061 59.079 -101.5693
1388.727958 57.541 158.2886
1398.791253 57.410 100.6216
1408.927471 58.503 69.4961
1419.137140 58.961 30.4634
1429.420793 59.312 -4.2109
1439.778965 60.649 -40.5811
1450.212197 61.910 -83.6694
1460.721033 62.078 -127.5938
1471.306019 61.436 -159.8340
1481.967709 60.615 -139.8228
1492.706658 59.738 -136.5820
1503.523426 59.152 -145.0605
1514.418576 60.137 -119.8003
1525.392678 62.315 -109.6890
1536.446302 64.037 -127.5078
1547.580025 64.996 -146.0464
1558.794428 65.740 -162.1177
1570.090095 66.021 176.4683
1581.467615 65.111 159.3350
1592.927581 64.066 -134.7124
1604.470591 64.575 -136.6519
1616.097246 65.228 -158.8096
1627.808153 65.520 -179.4976
1639.603922 65.326 150.3315
1651.485168 64.133 107.7983
1663.452510 62.609 49.4678
1675.506573 62.006 -10.8467
1687.647984 62.047 -52.1548
1699.877377 61.780 -69.7026
1712.195390 61.493 -35.5488
1724.602663 62.078 -38.1582
1737.099845 63.172 -51.0859
1749.687587 63.667 -69.0029
1762.366544 63.010 -88.9722
1775.137379 62.281 -80.8252
1788.000756 63.572 -9.7603
1800.957346 65.515 -26.0044
1814.007826 66.193 -53.8726
1827.152874 65.704 -26.6914
1840.393177 65.724 10.5972
1853.729425 67.073 0.4429
1867.162312 68.465 -18.7812
1880.692540 68.902 -44.6421
1894.320813 68.944 -73.8613
1908.047843 68.449 -117.0518
1921.874344 66.955 -169.6821
1935.801038 66.012 147.0908
1949.828650 66.543 119.0542
1963.957912 67.748 109.1992
1978.189561 69.172 92.8896
1992.524338 69.948 70.0200
2006.962991 69.531 45.1162
2021.506272 67.920 21.9907
2036.154940 65.721 4.2612
2050.909758 64.301 -10.7212
2065.771495 64.994 -138.4097
2080.740927 66.415 164.6084
2095.818833 67.492 140.3862
2111.006001 68.430 176.7402
2126.303220 68.709 172.5454
2141.711290 68.222 160.1685
2157.231013 67.932 154.7798
2172.863198 68.238 149.3345
2188.608660 68.836 142.0146
2204.468221 69.984 132.8159
2220.442706 70.919 106.0444
2236.532950 70.836 55.2993
2252.739789 70.444 -39.8447
2269.064070 69.932 -105.9482
2285.506644 68.878 -143.7026
2302.068367 67.311 -153.2920
2318.750104 66.693 -73.5073
2335.552723 68.249 -72.8594
2352.477101 69.629 -90.0024
2369.524119 69.610 -106.5981
2386.694668 69.112 -97.8311
2403.989641 69.499 -74.7910
2421.409941 69.104 -82.7568
2438.956476 67.527 -81.0000
2456.630160 67.023 -32.3940
2474.431915 67.984 -22.3691
2492.362668 68.863 -28.5396
2510.423356 68.696 -38.8140
2528.614918 67.439 -36.7324
2546.938304 67.607 -3.3618
2565.394469 69.723 22.2744
2583.984375 71.091 17.5107
2602.708991 70.841 3.9019
2621.569293 69.400 -4.0679
2640.566265 67.380 -1.8174
2659.700897 65.998 12.3623
2678.974186 65.598 18.6064
2698.387137 65.527 26.5410
2717.940763 66.512 130.2666
2737.636082 67.711 129.1841
2757.474121 68.902 127.2964
2777.455915 70.485 127.7505
2797.582506 71.306 118.0913
2817.854942 70.654 107.4058
2838.274281 69.464 105.9072
2858.841586 68.888 104.1719
2879.557931 68.412 88.2549
2900.424394 67.633 -134.2251
2921.442065 67.122 -142.0874
2942.612039 67.007 -152.9458
2963.935418 66.540 -155.4155
2985.413316 66.542 -117.7324
3007.046852 67.580 -100.0337
3028.837153 68.332 -102.7314
3050.785356 67.932 -113.1846
3072.892604 66.891 -105.7495
3095.160050 67.035 -33.8140
3117.588856 67.961 -29.2354
3140.180190 68.143 -35.1768
3162.935230 67.761 -36.5977
3185.855163 67.457 -29.9541
3208.941182 67.722 -3.8794
3232.194493 68.012 7.8359
3255.616307 67.627 13.2427
3279.207844 66.972 30.5825
3302.970336 66.980 44.3750
3326.905021 66.649 51.4087
3351.013146 65.821 78.1069
3375.295969 66.012 105.1191
3399.754755 67.284 134.5371
3424.390779 68.676 143.7554
3449.205326 68.955 139.6782
3474.199690 68.043 145.3257
3499.375173 66.961 156.1519
3524.733088 66.275 167.9380
3550.274757 65.953 -179.5454
3576.001511 65.773 -167.2227
3601.914692 65.364 -144.5493
3628.015651 65.206 -110.2280
3654.305748 66.834 -77.8149
3680.786354 68.995 -70.9326
3707.458849 69.637 -78.7690
3734.324624 68.435 -70.5640
3761.385080 67.189 -37.7715
3788.641627 66.931 -27.7144
3816.095686 66.679 -20.9204
3843.748688 66.719 7.2183
3871.602076 67.508 26.7090
3899.657300 67.374 26.4785
3927.915825 66.124 41.0137
3956.379122 65.810 82.3906
3985.048676 67.095 103.6006
4013.925981 68.098 106.4790
4043.012544 68.405 128.2314
4072.309879 68.860 160.7856
4101.819515 68.915 163.4336
4131.542990 68.424 170.3193
4161.481854 67.938 179.1304
4191.637667 67.625 -175.8154
4222.012001 67.470 -177.7153
4252.606441 67.372 -155.4897
4283.422580 67.627 -45.4351
4314.462026 67.900 -51.7163
4345.726396 67.841 -53.4961
4377.217321 67.235 -52.0620
4408.936442 66.150 -47.5889
4440.885413 64.927 -7.7012
4473.065899 64.305 31.3779
4505.479579 63.871 46.5898
4538.128141 63.672 69.2842
4571.013288 63.342 81.9048
4604.136735 63.141 108.2432
4637.500207 64.072 140.2339
4671.105446 64.900 154.6182
4704.954201 65.240 176.1016
4739.048239 65.796 -160.0151
4773.389336 66.019 -149.7158
4807.979283 65.722 -129.3433
4842.819883 65.533 -100.9429
4877.912952 65.339 -89.6250
4913.260320 65.841 -44.8560
4948.863830 67.289 -2.8623
4984.725337 68.126 -0.8657
5020.846712 67.911 -0.5327
5057.229836 66.906 5.6299
5093.876609 65.839 37.4160
5130.788938 65.783 74.8594
5167.968750 66.079 86.6323
5205.417982 66.133 120.1616
5243.138586 66.094 152.1792
5281.132530 66.270 -177.0977
5319.401793 66.999 -157.0171
5357.948371 67.144 -143.6997
5396.774274 66.863 -127.0869
5435.881525 66.342 -117.2183
5475.272163 65.424 -89.0283
5514.948243 65.603 -46.2061
5554.911831 66.905 -9.7490
5595.165012 68.037 12.8682
5635.709884 67.939 19.1416
5676.548561 66.980 30.6060
5717.683172 65.867 47.0220
5759.115861 65.133 79.9082
5800.848789 65.056 134.6226
5842.884130 65.371 166.3481
5885.224077 65.935 -171.5859
5927.870837 66.421 -154.2231
5970.826633 67.269 -133.0459
6014.093704 68.086 -115.1025
6057.674306 68.128 -87.3081
6101.570711 67.174 -55.5195
6145.785208 65.927 -14.8359
6190.320101 65.302 9.9595
6235.177712 65.350 45.7964
6280.360380 66.000 71.5967
6325.870460 66.174 82.7202
6371.710325 66.215 104.1670
6417.882365 66.801 159.9421
6464.388986 67.219 -155.2444
6511.232613 67.194 -139.3921
6558.415689 67.074 -124.7861
6605.940673 66.685 -103.5237
6653.810042 66.335 -63.0769
6702.026292 66.009 -38.0571
6750.591937 65.642 -15.1279
6799.509509 65.688 33.8540
6848.781558 66.381 80.4900
6898.410653 67.195 106.5867
6948.399380 67.623 127.2214
6998.750346 67.198 146.2930
7049.466176 66.438 176.3147
7100.549514 66.848 -139.6692
7152.003023 67.864 -112.0544
7203.829385 67.866 -94.0410
7256.031302 67.229 -67.2957
7308.611496 66.804 -30.3599
7361.572708 66.349 -0.1958
7414.917698 65.768 36.1292
7468.649249 66.112 76.4033
7522.770160 66.730 105.0007
7577.283253 66.839 131.2795
7632.191371 66.330 156.8674
7687.497376 65.398 -166.1069
7743.204151 65.258 -118.8335
7799.314600 65.936 -84.4124
7855.831649 66.026 -60.8181
7912.758244 65.398 -31.9277
7970.097352 64.830 13.7026
8027.851962 64.844 57.5276
8086.025087 65.220 91.7563
8144.619758 65.658 126.8669
8203.639030 65.477 154.2629
8263.085980 64.583 -167.6877
8322.963708 64.743 -111.6155
8383.275334 65.957 -67.9426
8444.024002 66.808 -36.3936
8505.212881 66.598 -10.4316
8566.845160 65.880 24.2703
8628.924051 65.595 72.3953
8691.452792 65.669 113.4409
8754.434642 65.416 143.9509
8817.872884 64.927 -179.9497
8881.770826 64.602 -135.7678
8946.131799 64.421 -92.3892
9010.959157 64.466 -49.0510
9076.256282 65.028 -4.0732
9142.026576 65.634 32.8901
9208.273470 65.365 66.4705
9275.000415 65.139 119.4536
9342.210891 65.778 167.4331
9409.908403 66.148 -161.5027
9478.096478 65.883 -123.7112
9546.778672 65.431 -82.0996
9615.958566 64.658 -40.1241
9685.639765 64.213 8.7089
9755.825904 64.405 57.7834
9826.520640 64.640 98.7664
9897.727659 64.792 145.3655
9969.450674 65.473 -162.5876
10041.693423 66.005 -125.9534
10114.459673 65.878 -88.6077
10187.753217 65.566 -44.0599
10261.577877 65.206 0.6433
10335.937500 65.124 55.2142
10410.835964 65.322 100.6830
10486.277173 65.185 136.1025
10562.265060 64.578 179.7051
10638.803587 64.329 -123.4553
10715.896743 63.967 -80.3152
10793.548548 63.233 -28.8646
10871.763050 63.039 28.8361
10950.544327 63.386 81.9694
11029.896485 63.881 133.8981
11109.823662 63.559 175.6937
11190.330024 62.774 -126.0867
11271.419768 63.095 -58.8653
11353.097122 63.955 -12.0985
11435.366344 64.378 40.6788
11518.231722 64.589 97.4079
11601.697577 64.753 144.2688
11685.768261 64.726 -167.6678
11770.448155 64.559 -113.2796
11855.741674 64.795 -53.0293
11941.653265 65.292 -3.7068
12028.187408 65.413 43.8773
12115.348612 65.694 103.2682
12203.141422 66.215 157.4420
12291.570415 66.412 -151.0353
12380.640201 66.456 -99.0577
12470.355424 66.213 -44.7116
12560.720760 65.905 10.2669
12651.740920 65.512 64.6506
12743.420650 65.423 127.8369
12835.764729 65.796 -173.2158
12928.777972 65.956 -117.9706
13022.465227 66.199 -59.0123
13116.831378 66.511 -2.0352
13211.881345 66.825 54.2999
13307.620084 66.810 110.0632
13404.052584 66.657 168.3370
13501.183875 66.495 -136.7869
13599.019019 65.992 -79.8987
13697.563116 65.493 -17.2520
13796.821305 65.194 46.0988
13896.798760 65.092 106.9440
13997.500692 64.880 166.5499
14098.932352 64.628 -130.6722
14201.099028 64.313 -67.5950
14304.006046 64.120 2.2783
14407.658770 64.379 68.6912
14512.062604 64.621 128.9706
14617.222992 64.419 -170.0939
14723.145416 64.156 -105.4103
14829.835397 63.783 -43.2073
14937.298497 63.222 23.8169
15045.540320 62.689 90.6312
15154.566507 62.173 158.8571
15264.382743 62.021 -127.8344
15374.994752 62.192 -58.5913
15486.408302 62.114 6.6349
15598.629201 61.783 74.2981
15711.663298 61.324 143.0059
15825.516487 60.858 -145.6611
15940.194703 60.515 -74.2747
16055.703925 60.146 -3.7009
16172.050174 59.822 70.2275
16289.239516 59.670 144.6069
16407.278061 59.520 -141.0945
16526.171961 59.293 -67.5447
16645.927415 59.106 8.6809
16766.550667 59.222 86.6294
16888.048005 59.475 160.9709
17010.425762 59.583 -125.5320
17133.690320 59.402 -52.8230
17257.848103 59.047 24.3433
17382.905584 58.832 101.9619
17508.869284 58.534 177.6475
17635.745768 58.189 -103.8823
17763.541652 57.897 -25.8374
17892.263597 57.582 54.3708
18021.918315 57.253 132.5925
18152.512564 56.759 -148.6304
18284.053153 56.334 -66.2070
18416.546939 55.923 12.4846
18550.000830 55.163 94.0386
18684.421783 54.089 175.4858
18819.816805 52.811 -98.8474
18956.192956 51.874 -11.0889
19093.557344 50.939 75.0415
19231.917131 49.979 168.3242
19371.279531 49.172 -104.4995
19511.651807 48.372 -16.1411
19653.041280 47.502 70.6240
19795.455318 46.572 160.2549
19938.901348 45.871 -113.0483
