* Measurement data measured by REW V5.31.1
* Source: Scarlett 2i4 USB, MICROPHONE, R, volume: no control
* Format: 512k Log Swept Sine, 1 sweep at -18.0 dBFS with no timing reference
* Dated: May 16, 2024 7:04:59 AM
* REW Settings:
*  C-weighting compensation: Off
*  Target level: 75.0 dB
* Note: ; 
* Measurement: bns-back12-p1-l
* Smoothing: 1/48 octave
* Frequency Step: 96 ppo
* Start Frequency: 10.093689 Hz
*
* Freq(Hz) SPL(dB) Phase(degrees)
10.093689 42.169 34.7168
10.166832 42.087 31.6993
10.240505 41.986 28.7179
10.314712 41.880 25.9163
10.389457 41.763 23.5033
10.464743 41.594 21.7100
10.540575 41.332 20.4146
10.616956 41.023 19.5634
10.693891 40.716 19.1864
10.771383 40.451 19.3350
10.849437 40.220 20.2912
10.928057 40.018 22.0461
11.007246 39.880 24.2357
11.087009 39.849 26.4000
11.167350 39.961 28.3966
11.248273 40.203 30.5007
11.329783 40.521 32.2896
11.411883 40.856 33.4041
11.494578 41.188 33.6447
11.577873 41.542 33.2434
11.661771 41.879 32.3881
11.746277 42.143 31.2107
11.831395 42.307 29.6231
11.917130 42.391 27.3390
12.003487 42.369 24.8091
12.090469 42.198 22.5053
12.178081 41.864 20.4285
12.266329 41.377 17.9476
12.355216 40.694 15.7199
12.444747 39.727 14.8228
12.534926 38.248 15.8393
12.625760 36.367 19.4006
12.717251 34.784 29.0686
12.809406 34.432 49.8032
12.902228 35.602 78.4957
12.995723 37.616 98.3526
13.089895 39.759 106.3465
13.184750 41.725 107.8019
13.280292 43.673 107.0007
13.376526 45.509 104.7529
13.473458 47.096 101.2747
13.571093 48.406 96.9049
13.669434 49.514 92.2186
13.768489 50.488 87.3744
13.868261 51.363 82.1605
13.968756 52.119 76.5460
14.069979 52.775 70.9356
14.171936 53.352 65.3903
14.274632 53.844 59.4267
14.378072 54.254 53.3763
14.482261 54.594 47.5718
14.587206 54.864 41.5442
14.692910 55.062 35.3151
14.799381 55.194 29.3360
14.906624 55.261 23.4122
15.014643 55.261 17.2487
15.123446 55.196 11.3030
15.233036 55.066 5.6364
15.343421 54.869 -0.1755
15.454606 54.608 -5.7569
15.566596 54.280 -10.8820
15.679398 53.886 -15.9138
15.793018 53.431 -20.6048
15.907460 52.914 -24.6405
16.022732 52.339 -28.1714
16.138840 51.735 -31.1263
16.255788 51.108 -33.1504
16.373585 50.477 -34.1414
16.492234 49.919 -34.3890
16.611744 49.464 -33.6115
16.732119 49.129 -31.8568
16.853367 48.968 -29.9703
16.975494 49.002 -27.9262
17.098505 49.178 -26.0262
17.222408 49.443 -24.7886
17.347209 49.790 -24.1262
17.472914 50.167 -23.8988
17.599530 50.530 -24.0811
17.727063 50.885 -24.6093
17.855521 51.229 -25.1760
17.984909 51.557 -25.7626
18.115235 51.887 -26.3616
18.246506 52.238 -26.8626
18.378727 52.612 -27.2768
18.511907 53.018 -27.8068
18.646052 53.464 -28.4156
18.781169 53.938 -29.1869
18.917265 54.423 -30.3343
19.054347 54.916 -31.7435
19.192423 55.386 -33.4400
19.331499 55.822 -35.4923
19.471583 56.213 -37.7094
19.612682 56.542 -40.0010
19.754804 56.809 -42.4111
19.897956 57.012 -44.5627
20.042144 57.151 -46.5697
20.187378 57.249 -48.1926
20.333664 57.316 -49.2613
20.481010 57.385 -49.8704
20.629424 57.498 -49.9110
20.778913 57.672 -49.4689
20.929486 57.944 -48.9749
21.081150 58.318 -48.3697
21.233912 58.769 -48.2570
21.387782 59.282 -48.6332
21.542767 59.807 -49.6133
21.698874 60.309 -51.3105
21.856113 60.760 -53.4375
22.014492 61.128 -55.9929
22.174018 61.407 -58.7563
22.334700 61.587 -61.4290
22.496546 61.672 -64.0173
22.659566 61.678 -66.0185
22.823766 61.627 -67.5289
22.989157 61.571 -68.1737
23.155745 61.544 -68.0251
23.323542 61.623 -67.2697
23.492554 61.827 -66.0254
23.662790 62.172 -65.0285
23.834261 62.634 -64.3195
24.006973 63.146 -64.4164
24.180938 63.673 -65.1212
24.356163 64.154 -66.3757
24.532658 64.578 -67.9460
24.710431 64.933 -69.4493
24.889493 65.245 -70.7704
25.069853 65.550 -71.5268
25.251519 65.905 -71.8989
25.434502 66.364 -71.7745
25.618811 66.955 -71.8619
25.804456 67.686 -72.2383
25.991445 68.497 -73.6980
26.179790 69.346 -76.0774
26.369500 70.152 -79.6705
26.560584 70.878 -84.1159
26.753053 71.478 -89.3806
26.946917 71.931 -95.0058
27.142185 72.222 -101.0271
27.338869 72.341 -106.7673
27.536977 72.290 -112.3441
27.736522 72.082 -116.9514
27.937512 71.757 -120.5595
28.139959 71.376 -122.4661
28.343872 71.081 -122.7707
28.549264 70.984 -121.3869
28.756143 71.212 -119.6427
28.964522 71.727 -118.5022
29.174411 72.436 -118.9168
29.385821 73.166 -121.1941
29.598763 73.822 -124.9661
29.813248 74.319 -129.9595
30.029287 74.627 -135.4578
30.246891 74.731 -141.3602
30.466073 74.631 -146.8948
30.686842 74.349 -151.7840
30.909212 73.915 -155.6165
31.133193 73.418 -157.8016
31.358797 72.975 -158.3859
31.586035 72.709 -157.3610
31.814921 72.729 -155.9601
32.045465 72.998 -155.2061
32.277680 73.423 -155.7966
32.511577 73.846 -158.0849
32.747169 74.164 -161.5520
32.984469 74.314 -165.8624
33.223488 74.257 -170.4690
33.464239 73.990 -174.6169
33.706735 73.535 -177.8644
33.950987 72.946 -179.4824
34.197010 72.360 -178.7790
34.444816 71.979 -175.8532
34.694417 71.966 -171.5289
34.945827 72.390 -167.5935
35.199059 73.087 -165.7977
35.454126 73.859 -166.3535
35.711041 74.558 -168.8693
35.969818 75.091 -172.8239
36.230470 75.421 -177.5092
36.493011 75.543 177.6182
36.757455 75.468 172.9431
37.023814 75.218 168.8565
37.292104 74.832 165.7823
37.562338 74.371 163.9811
37.834530 73.908 163.5217
38.108695 73.512 164.3091
38.384846 73.238 166.0135
38.662999 73.108 168.1480
38.943167 73.102 170.3171
39.225365 73.190 172.3643
39.509608 73.345 174.2841
39.795911 73.552 176.1690
40.084289 73.811 178.1593
40.374756 74.144 -179.5994
40.667328 74.591 -177.0158
40.962020 75.207 -174.2169
41.258848 76.028 -171.6635
41.557827 77.042 -170.0262
41.858972 78.183 -169.8737
42.162299 79.362 -171.4418
42.467824 80.495 -174.6368
42.775564 81.524 -179.1688
43.085533 82.418 175.3174
43.397749 83.170 169.1611
43.712227 83.783 162.6445
44.028983 84.272 155.9713
44.348036 84.651 149.2698
44.669400 84.930 142.6169
44.993093 85.118 136.0672
45.319131 85.218 129.6823
45.647532 85.234 123.5510
45.978313 85.175 117.7892
46.311491 85.057 112.5151
46.647083 84.909 107.8037
46.985107 84.760 103.6398
47.325581 84.637 99.9019
47.668521 84.553 96.4063
48.013947 84.501 92.9975
48.361876 84.470 89.6223
48.712326 84.454 86.3311
49.065315 84.462 83.2040
49.420863 84.519 80.2486
49.778987 84.649 77.3402
50.139706 84.865 74.2520
50.503039 85.162 70.7501
50.869005 85.526 66.6565
51.237623 85.942 61.8351
51.608912 86.393 56.1300
51.982891 86.855 49.3408
52.359580 87.287 41.2767
52.739000 87.631 31.8483
53.121168 87.824 21.1265
53.506106 87.807 9.3412
53.893833 87.533 -3.1936
54.284370 86.968 -16.0675
54.677737 86.097 -28.7704
55.073955 84.922 -40.7302
55.473043 83.478 -51.3771
55.875024 81.840 -60.3102
56.279917 80.116 -67.5060
56.687745 78.412 -73.6018
57.098527 76.766 -79.6777
57.512287 75.114 -86.5632
57.929045 73.340 -94.5460
58.348822 71.348 -103.8052
58.771642 69.089 -115.2141
59.197525 66.634 -131.7418
59.626495 64.461 -161.9937
60.058573 63.804 143.9972
60.493782 65.101 99.9457
60.932145 67.060 75.5249
61.373685 68.831 58.8090
61.818424 70.248 45.3309
62.266386 71.343 33.5496
62.717593 72.170 22.7665
63.172071 72.773 12.7774
63.629842 73.206 3.6852
64.090930 73.543 -4.3761
64.555359 73.881 -11.3934
65.023154 74.304 -17.6985
65.494339 74.845 -23.8381
65.968938 75.483 -30.3257
66.446976 76.171 -37.3453
66.928478 76.871 -44.8292
67.413469 77.567 -52.6063
67.901975 78.258 -60.5229
68.394021 78.953 -68.4937
68.889632 79.662 -76.5157
69.388835 80.388 -84.6500
69.891655 81.127 -92.9822
70.398118 81.867 -101.6167
70.908252 82.589 -110.6395
71.422083 83.264 -120.1046
71.939636 83.859 -129.9973
72.460941 84.344 -140.1711
72.986023 84.700 -150.3972
73.514909 84.927 -160.3271
74.047629 85.056 -169.6481
74.584208 85.144 -178.1608
75.124676 85.264 174.0128
75.669061 85.463 166.3724
76.217390 85.728 158.1404
76.769692 85.975 148.7269
77.325997 86.093 137.9268
77.886333 85.971 125.9966
78.450730 85.528 113.3682
79.019216 84.700 100.5095
79.591822 83.421 87.9739
80.168577 81.607 76.3711
80.749512 79.158 67.0858
81.334656 76.165 65.6792
81.924040 74.119 115.9452
82.517696 75.400 170.8347
83.115653 78.136 171.9536
83.717943 80.508 165.4392
84.324598 82.319 156.6914
84.935649 83.637 146.9425
85.551128 84.532 136.9324
86.171066 85.081 127.3936
86.795497 85.388 118.9858
87.424453 85.586 111.9995
88.057967 85.798 106.0825
88.696071 86.077 100.4333
89.338800 86.402 94.3961
89.986185 86.731 87.7729
90.638262 87.039 80.5375
91.295065 87.305 72.4507
91.956626 87.468 63.1169
92.622982 87.422 52.4364
93.294166 87.055 40.9480
93.970214 86.299 29.8094
94.651161 85.181 20.4875
95.337042 83.838 14.1174
96.027894 82.484 10.6196
96.723752 81.290 8.6688
97.424652 80.296 7.0004
98.130631 79.446 5.0586
98.841726 78.653 2.6357
99.557974 77.829 -0.1123
100.279412 76.924 -2.5623
101.006078 75.963 -3.9810
101.738010 75.045 -4.1509
102.475245 74.277 -3.8191
103.217823 73.684 -4.1434
103.965782 73.207 -5.7231
104.719161 72.776 -8.5671
105.477999 72.378 -12.3689
106.242336 72.092 -17.0361
107.012212 72.033 -23.6924
107.787666 72.204 -33.9242
108.568740 72.538 -48.0195
109.355474 73.032 -65.1887
110.147909 73.705 -84.4053
110.946086 74.508 -104.2507
111.750047 75.381 -123.0546
112.559834 76.310 -139.7594
113.375489 77.290 -154.3179
114.197055 78.275 -167.5112
115.024574 79.150 179.7683
115.858089 79.792 167.4717
116.697645 80.173 156.5594
117.543284 80.395 147.9719
118.395051 80.586 141.4348
119.252990 80.791 136.1360
120.117147 81.028 132.0021
120.987565 81.362 129.0957
121.864291 81.855 126.8108
122.747370 82.513 124.3137
123.636848 83.278 120.7845
124.532771 84.044 115.7849
125.435187 84.718 109.5164
126.344142 85.251 102.4662
127.259684 85.642 95.2328
128.181860 85.935 88.2078
129.110718 86.166 81.1162
130.046308 86.317 73.5518
130.988677 86.347 65.5609
131.937875 86.234 57.3582
132.893951 85.974 49.1520
133.856956 85.580 41.0242
134.826938 85.049 32.6377
135.803950 84.323 23.6550
136.788041 83.307 14.2671
137.779264 81.908 4.9501
138.777669 80.023 -3.5881
139.783309 77.561 -10.0259
140.796237 74.656 -9.4037
141.816504 72.733 46.4784
142.844165 73.821 97.1492
143.879273 76.007 95.9565
144.921881 77.719 89.5404
145.972045 78.895 83.5791
147.029819 79.737 78.6218
148.095257 80.340 73.6449
149.168417 80.678 68.1475
150.249353 80.728 63.1307
151.338121 80.616 60.5126
152.434780 80.644 61.4242
153.539385 81.019 62.8094
154.651995 81.499 60.1921
155.772667 81.698 54.6792
156.901460 81.498 49.6179
158.038432 81.034 47.4719
159.183644 80.643 49.9790
160.337154 80.713 55.2306
161.499023 81.268 58.5883
162.669312 82.057 59.2412
163.848081 82.876 57.5996
165.035392 83.563 53.5879
166.231306 84.011 48.1997
167.435887 84.205 42.6473
168.649196 84.191 37.8436
169.871298 84.078 34.5994
171.102255 84.015 32.9095
172.342133 84.070 31.3174
173.590995 84.175 28.8235
174.848907 84.268 26.2148
176.115934 84.367 23.7578
177.392143 84.491 21.2350
178.677599 84.659 18.7201
179.972371 84.866 15.6510
181.276525 85.069 11.8350
182.590129 85.239 7.4689
183.913252 85.373 2.6666
185.245964 85.494 -2.4277
186.588332 85.622 -8.2299
187.940428 85.693 -15.8129
189.302322 85.554 -25.6310
190.674085 85.036 -37.0316
192.055788 84.021 -48.6104
193.447503 82.463 -58.3967
194.849303 80.410 -64.3201
196.261262 78.022 -64.1174
197.683452 75.747 -54.1445
199.115948 74.444 -38.1674
200.558824 74.340 -31.0012
202.012156 74.459 -35.4166
203.476019 73.953 -46.5604
204.950490 72.614 -60.8534
206.435646 71.119 -82.5862
207.931564 71.505 153.5432
209.438322 73.914 98.9058
210.955998 76.345 78.4036
212.484672 78.168 63.2335
214.024424 79.473 51.0953
215.575333 80.437 41.0660
217.137481 81.210 32.2582
218.710948 81.828 23.1838
220.295818 82.214 12.8302
221.892172 82.235 1.0205
223.500094 81.782 -11.2079
225.119668 80.804 -22.3850
226.750978 79.311 -31.0583
228.394109 77.345 -36.0415
230.049147 75.058 -34.1298
231.716178 73.203 -14.7922
233.395289 73.172 15.3101
235.086567 74.439 23.6235
236.790102 75.567 21.4435
238.505980 76.331 20.5261
240.234293 77.130 23.7020
241.975130 78.129 25.6708
243.728581 79.070 22.9669
245.494739 79.711 17.5753
247.273695 80.053 12.5009
249.065542 80.319 10.1780
250.870374 80.776 9.5903
252.688284 81.447 7.7368
254.519367 82.156 3.3398
256.363720 82.706 -3.4740
258.221437 82.966 -11.8796
260.092616 82.889 -20.4541
261.977354 82.561 -27.4177
263.875750 82.204 -31.9939
265.787903 82.002 -36.1903
267.713911 81.840 -43.3893
269.653877 81.363 -53.9824
271.607900 80.300 -64.6929
273.576083 78.657 -71.0225
275.558528 76.718 -71.4980
277.555338 74.793 -69.4744
279.566619 72.959 -66.0680
281.592474 71.189 -60.6783
283.633009 69.711 -51.0773
285.688331 69.663 -18.2532
287.758546 71.610 13.8577
289.843763 73.936 16.1871
291.944090 75.737 10.0975
294.059638 77.017 3.1187
296.190515 77.945 -3.4404
298.336833 78.542 -11.0790
300.498705 78.693 -19.8260
302.676243 78.436 -26.2625
304.869559 78.230 -26.0320
307.078770 78.784 -20.0070
309.303989 80.125 -18.0074
311.545334 81.617 -23.5302
313.802919 82.835 -33.9332
316.076865 83.657 -46.8936
318.367288 84.079 -61.0522
320.674309 84.122 -75.6646
322.998047 83.835 -89.6841
325.338624 83.387 -101.6597
327.696162 83.076 -111.8643
330.070783 83.027 -123.7183
332.462612 82.993 -139.5171
334.871773 82.649 -157.9985
337.298392 81.856 -176.5657
339.742595 80.731 167.6113
342.204510 79.678 156.0823
344.684265 79.111 145.2817
347.181989 78.829 130.2725
349.697813 78.262 112.7312
352.231868 77.213 98.5332
354.784285 76.248 95.1357
357.355198 76.396 98.9268
359.944741 77.336 92.2498
362.553049 77.945 77.0933
365.180258 77.853 61.1858
367.826505 77.124 46.6482
370.491927 75.744 33.4644
373.176665 73.876 31.8679
375.880856 72.989 66.0107
378.604644 74.389 84.8477
381.348169 76.614 84.0010
384.111575 78.621 77.3147
386.895006 80.198 67.1145
389.698607 81.333 54.9783
392.522524 82.075 42.0103
395.366904 82.420 27.9529
398.231895 82.236 12.1912
401.117648 81.331 -3.7107
404.024312 79.808 -10.7683
406.952038 78.877 7.5901
409.900981 79.662 17.4182
412.871292 80.915 8.0142
415.863128 81.570 -7.6423
418.876643 81.380 -24.4106
421.911996 80.476 -37.1763
424.969344 79.362 -43.1392
428.048847 78.506 -49.0435
431.150666 77.829 -57.4160
434.274961 77.343 -64.1570
437.421897 77.388 -71.3921
440.591636 77.909 -85.0369
443.784345 78.472 -106.3752
447.000189 78.812 -133.1799
450.239337 78.910 -162.9495
453.501956 78.727 165.8835
456.788219 78.096 135.8542
460.098294 76.942 111.5005
463.432356 75.897 103.8860
466.790578 76.403 113.6084
470.173135 77.834 105.1157
473.580203 78.529 84.6904
477.011961 78.108 66.4312
480.468586 77.627 71.1362
483.950259 78.896 95.8193
487.457163 80.999 91.0190
490.989478 82.443 74.2756
494.547390 82.928 56.4612
498.131084 82.771 43.5288
501.740748 82.614 36.8848
505.376568 82.922 31.6130
509.038735 83.420 20.7395
512.727439 83.529 4.3335
516.442874 82.955 -14.6101
520.185232 81.660 -35.1843
523.954708 79.749 -59.6111
527.751500 78.008 -101.6506
531.575805 78.175 139.8562
535.427822 79.635 90.0117
539.307753 80.659 60.9707
543.215800 80.874 40.0889
547.152165 80.508 26.5706
551.117055 79.993 20.1558
555.110677 79.589 14.7368
559.133237 78.992 6.3147
563.184947 78.062 3.9529
567.266018 77.819 23.9641
571.376661 78.906 33.6069
575.517092 80.265 28.6167
579.687526 81.404 21.6165
583.888181 82.353 13.4573
588.119275 82.978 1.5945
592.381030 83.074 -12.9731
596.673667 82.514 -29.0176
600.997410 81.146 -45.1392
605.352485 78.883 -57.1897
609.739119 76.068 -54.3921
614.157540 74.324 -10.6389
618.607979 74.588 1.0752
623.090667 75.159 -5.8662
627.605839 76.326 10.9260
632.153730 78.304 17.2451
636.734576 79.705 -0.4331
641.348617 79.938 -23.6204
645.996094 79.128 -46.6350
650.677248 77.818 -70.6292
655.392323 76.827 -109.6707
660.141566 76.569 178.0466
664.925224 77.212 120.6396
669.743546 78.598 91.8699
674.596784 79.921 71.4172
679.485191 80.840 55.6926
684.409020 81.378 42.4827
689.368530 81.658 33.1707
694.363979 82.169 29.6467
699.395626 82.951 21.9495
704.463736 83.446 8.4634
709.568570 83.146 -8.6729
714.710396 81.805 -23.2805
719.889483 79.620 -29.0645
725.106099 77.130 -25.5532
730.360516 75.207 -13.6006
735.653010 75.257 18.2559
740.983855 77.016 36.0679
746.353329 78.451 28.6558
751.761713 79.223 23.3586
757.209288 80.668 41.0647
762.696339 82.803 44.8586
768.223151 84.365 32.0095
773.790013 84.959 16.8882
779.397214 84.791 5.9363
785.045047 84.409 1.3540
790.733808 84.464 2.5520
796.463791 85.358 6.8828
802.235296 86.580 2.3469
808.048623 87.616 -5.7070
813.904077 88.491 -14.8357
819.801961 88.982 -27.8394
825.742584 89.082 -39.7415
831.726255 89.153 -49.9683
837.753287 89.275 -62.4810
843.823992 89.067 -79.8743
849.938689 88.103 -98.3718
856.097695 86.602 -110.3325
862.301332 85.357 -122.6377
868.549922 84.524 -144.7241
874.843793 84.031 -178.2034
881.183272 83.910 129.3894
887.568689 83.822 67.2930
894.000378 83.529 19.1409
900.478673 83.115 -11.7566
907.003913 83.070 -33.0371
913.576437 83.037 -59.0027
920.196588 82.214 -90.8821
926.864712 80.708 -130.9163
933.581156 80.109 157.9968
940.346270 81.720 86.4668
947.160407 83.711 46.0786
954.023921 84.944 15.7100
960.937172 85.307 -10.1387
967.900519 84.659 -31.1465
974.914325 83.473 -40.0137
981.978956 82.948 -38.6982
989.094780 83.157 -45.7822
996.262169 82.906 -61.3906
1003.481495 82.072 -71.5752
1010.753136 82.239 -40.7324
1018.077470 83.820 -28.3013
1025.454879 85.007 -46.9233
1032.885748 85.156 -67.4795
1040.370463 84.315 -84.1943
1047.909417 82.982 -90.3188
1055.503000 82.326 -86.2500
1063.151610 82.692 -90.6821
1070.855645 83.061 -104.9629
1078.615506 82.555 -125.2158
1086.431599 80.886 -142.2822
1094.304330 78.765 -151.4697
1102.234110 77.239 -172.5059
1110.221353 76.467 115.0947
1118.266475 77.218 -13.5117
1126.369895 79.207 -46.4648
1134.532035 80.787 -75.2085
1142.753322 81.273 -104.5454
1151.034184 80.615 -132.8457
1159.375052 79.025 -157.3291
1167.776361 77.115 -176.6733
1176.238550 76.014 166.0684
1184.762060 76.556 144.3950
1193.347334 77.956 109.6543
1201.994821 78.729 65.5391
1210.704971 79.055 33.9370
1219.478238 79.881 8.5522
1228.315080 80.104 -24.0415
1237.215957 78.727 -49.6011
1246.181334 76.452 -56.3887
1255.211678 74.227 -64.7983
1264.307459 72.474 -61.4492
1273.469152 72.865 6.3511
1282.697235 75.067 21.4390
1291.992188 77.557 9.9395
1301.354495 79.929 -2.1558
1310.784647 82.056 -16.0391
1320.283132 83.737 -34.0840
1329.850448 84.544 -58.0942
1339.487093 84.291 -83.5801
1349.193569 83.099 -109.1104
1358.970381 80.774 -131.4458
1368.818041 77.477 -128.3594
1378.737061 74.896 -110.1538
1388.727958 74.458 -127.1118
1398.791253 75.933 119.1191
1408.927471 78.345 10.7651
1419.137140 80.325 -23.9819
1429.420793 81.003 -57.5132
1439.778965 80.190 -83.6768
1450.212197 78.903 -88.6782
1460.721033 78.183 -86.7559
1471.306019 78.018 -63.4453
1481.967709 78.246 -68.5703
1492.706658 78.479 -70.6577
1503.523426 78.639 -70.2622
1514.418576 78.221 -80.0195
1525.392678 78.088 -86.3535
1536.446302 78.148 -92.5469
1547.580025 78.012 -58.1997
1558.794428 78.768 -51.5811
1570.090095 80.780 -52.4561
1581.467615 82.648 -65.9883
1592.927581 83.322 -87.2490
1604.470591 82.912 -105.1172
1616.097246 82.080 -114.7178
1627.808153 81.861 -108.6284
1639.603922 82.939 -107.8511
1651.485168 84.555 -119.0659
1663.452510 85.755 -139.8745
1675.506573 85.941 -168.1138
1687.647984 85.374 158.0029
1699.877377 84.045 110.9663
1712.195390 82.556 31.4873
1724.602663 82.450 -44.6328
1737.099845 82.789 -87.2212
1749.687587 82.618 -115.5767
1762.366544 82.199 -135.1782
1775.137379 81.668 -151.7666
1788.000756 80.889 -166.0908
1800.957346 79.737 -179.5952
1814.007826 77.955 172.4585
1827.152874 76.114 -160.1060
1840.393177 76.123 -137.6997
1853.729425 78.518 -115.6953
1867.162312 81.588 -116.5674
1880.692540 83.683 -136.5244
1894.320813 84.232 -162.7417
1908.047843 83.208 174.9331
1921.874344 81.296 168.7930
1935.801038 80.368 -176.1846
1949.828650 80.876 -175.2070
1963.957912 81.401 175.9727
1978.189561 81.606 167.3960
1992.524338 81.562 161.5645
2006.962991 81.346 154.3101
2021.506272 81.354 166.6323
2036.154940 81.600 163.0889
2050.909758 81.525 153.2070
2065.771495 81.760 145.6733
2080.740927 81.794 129.8169
2095.818833 80.709 115.3970
2111.006001 79.740 130.7573
2126.303220 80.651 -165.8486
2141.711290 82.557 -175.8457
2157.231013 83.645 163.6885
2172.863198 83.749 148.1567
2188.608660 83.650 138.3921
2204.468221 83.627 130.4380
2220.442706 83.317 118.9531
2236.532950 82.491 110.0557
2252.739789 82.149 115.9966
2269.064070 83.456 126.8379
2285.506644 85.013 116.7793
2302.068367 85.386 94.6479
2318.750104 84.480 72.0684
2335.552723 82.440 54.0781
2352.477101 79.737 53.5581
2369.524119 77.785 76.1523
2386.694668 77.878 107.5830
2403.989641 79.583 126.1494
2421.409941 81.021 115.5254
2438.956476 80.731 95.2881
2456.630160 79.586 95.5586
2474.431915 80.140 116.1738
2492.362668 81.834 116.4639
2510.423356 82.901 105.8364
2528.614918 82.854 92.7793
2546.938304 82.766 90.6094
2565.394469 83.722 87.5952
2583.984375 84.774 71.9009
2602.708991 84.833 47.6201
2621.569293 83.363 24.2207
2640.566265 80.669 22.8325
2659.700897 78.668 42.7065
2678.974186 78.477 44.6270
2698.387137 78.189 33.2261
2717.940763 78.091 104.4160
2737.636082 78.606 93.4067
2757.474121 78.739 73.4365
2777.455915 79.154 82.7773
2797.582506 80.193 99.9048
2817.854942 80.772 86.0459
2838.274281 80.616 67.1973
2858.841586 79.855 55.7104
2879.557931 79.466 52.6104
2900.424394 79.238 37.3154
2921.442065 78.595 27.8613
2942.612039 78.867 42.9517
2963.935418 79.438 25.2051
2985.413316 79.060 -80.5093
3007.046852 79.056 140.7427
3028.837153 79.523 110.7812
3050.785356 79.387 90.1128
3072.892604 78.756 75.2964
3095.160050 78.289 75.0933
3117.588856 79.171 93.8398
3140.180190 80.644 81.2749
3162.935230 80.887 54.8613
3185.855163 79.472 30.5747
3208.941182 76.865 21.8125
3232.194493 74.448 50.5376
3255.616307 74.071 98.9326
3279.207844 75.599 113.8057
3302.970336 77.697 116.2144
3326.905021 79.932 118.1519
3351.013146 81.339 100.4639
3375.295969 81.152 76.8643
3399.754755 80.022 67.9873
3424.390779 79.082 71.2568
3449.205326 78.384 64.3296
3474.199690 77.431 54.6240
3499.375173 76.343 53.2427
3524.733088 76.627 109.9839
3550.274757 78.232 108.7656
3576.001511 78.940 89.8521
3601.914692 78.809 81.6807
3628.015651 79.137 84.8423
3654.305748 79.452 76.6650
3680.786354 78.961 71.1299
3707.458849 78.362 76.6460
3734.324624 78.516 79.9360
3761.385080 78.932 69.3408
3788.641627 78.939 55.9683
3816.095686 79.542 106.7842
3843.748688 80.849 114.0244
3871.602076 81.438 93.9814
3899.657300 81.343 81.9014
3927.915825 81.102 75.0249
3956.379122 81.180 73.7085
3985.048676 81.657 67.1797
4013.925981 81.363 52.4692
4043.012544 79.915 50.1484
4072.309879 78.530 61.1841
4101.819515 78.257 70.4727
4131.542990 78.879 71.4751
4161.481854 79.370 66.5703
4191.637667 79.387 59.1436
4222.012001 79.004 58.9307
4252.606441 79.012 62.7681
4283.422580 78.930 54.5703
4314.462026 78.264 49.2681
4345.726396 77.910 60.0210
4377.217321 78.983 74.4424
4408.936442 79.820 62.8184
4440.885413 79.096 55.9824
4473.065899 78.295 70.4829
4505.479579 78.662 74.7876
4538.128141 79.458 71.2305
4571.013288 79.639 60.2031
4604.136735 79.026 51.3945
4637.500207 78.443 52.4536
4671.105446 79.151 68.9565
4704.954201 80.141 62.9893
4739.048239 80.066 52.5649
4773.389336 80.247 73.3672
4807.979283 80.761 68.8506
4842.819883 80.144 52.5449
4877.912952 78.585 47.3066
4913.260320 77.314 54.3657
4948.863830 77.214 61.7139
4984.725337 78.021 68.2612
5020.846712 79.195 70.5063
5057.229836 80.205 70.4272
5093.876609 81.234 72.3940
5130.788938 81.443 58.5210
5167.968750 80.732 54.7808
5205.417982 80.698 59.4136
5243.138586 81.120 50.2344
5281.132530 81.071 52.9272
5319.401793 81.336 66.9961
5357.948371 81.511 57.1040
5396.774274 81.354 52.0884
5435.881525 81.213 46.4277
5475.272163 80.706 37.6245
5514.948243 79.923 33.6978
5554.911831 79.698 43.4980
5595.165012 80.775 56.0518
5635.709884 81.786 44.4292
5676.548561 81.622 30.9595
5717.683172 81.204 35.5078
5759.115861 80.813 30.7886
5800.848789 79.588 25.7266
5842.884130 78.572 37.3560
5885.224077 79.150 50.1694
5927.870837 80.381 47.1680
5970.826633 81.119 39.4453
6014.093704 81.653 34.8076
6057.674306 81.569 22.8394
6101.570711 80.577 16.7939
6145.785208 79.855 22.8389
6190.320101 79.993 22.5762
6235.177712 80.192 15.3452
6280.360380 80.085 7.4185
6325.870460 79.289 -3.1743
6371.710325 77.763 -5.0986
6417.882365 76.612 4.2988
6464.388986 76.328 7.0474
6511.232613 76.604 20.7427
6558.415689 77.082 22.5337
6605.940673 76.633 11.5259
6653.810042 75.795 20.8394
6702.026292 75.577 32.1274
6750.591937 75.912 35.6187
6799.509509 77.072 37.5356
6848.781558 78.052 25.7261
6898.410653 77.528 8.7295
6948.399380 75.899 5.7959
6998.750346 74.931 25.3799
7049.466176 75.418 50.1104
7100.549514 75.955 46.9751
7152.003023 75.738 41.4150
7203.829385 75.674 47.3838
7256.031302 76.434 55.0127
7308.611496 77.334 53.6035
7361.572708 78.171 53.6875
7414.917698 78.862 48.6616
7468.649249 79.137 43.8325
7522.770160 79.376 39.0918
7577.283253 79.784 39.9199
7632.191371 80.483 39.3530
7687.497376 80.650 28.2930
7743.204151 80.023 19.1665
7799.314600 79.051 17.4600
7855.831649 78.494 25.7422
7912.758244 78.868 34.2559
7970.097352 79.264 28.9058
8027.851962 79.260 23.9673
8086.025087 79.189 23.1602
8144.619758 79.362 26.0361
8203.639030 79.891 25.0850
8263.085980 80.085 16.6274
8322.963708 79.714 11.6509
8383.275334 79.339 13.5166
8444.024002 79.734 25.0723
8505.212881 80.653 21.7905
8566.845160 81.214 10.3506
8628.924051 81.028 -3.4819
8691.452792 79.993 -9.0332
8754.434642 78.919 -5.4688
8817.872884 78.084 -6.9507
8881.770826 77.293 -10.1323
8946.131799 76.422 3.9204
9010.959157 76.549 25.6792
9076.256282 77.516 29.2568
9142.026576 78.098 22.0625
9208.273470 78.200 18.6719
9275.000415 78.329 23.2344
9342.210891 79.020 25.8701
9409.908403 79.456 16.7056
9478.096478 79.051 12.1309
9546.778672 78.879 21.4819
9615.958566 79.673 29.0557
9685.639765 80.749 23.5103
9755.825904 81.162 13.3232
9826.520640 80.952 7.5894
9897.727659 80.885 7.0967
9969.450674 80.901 0.0425
10041.693423 80.462 -7.8726
10114.459673 80.000 -8.2651
10187.753217 80.078 -5.8496
10261.577877 80.016 -10.9668
10335.937500 79.348 -15.0269
10410.835964 78.830 -8.9688
10486.277173 79.238 -5.1699
10562.265060 79.937 -10.6523
10638.803587 79.993 -21.7251
10715.896743 79.283 -27.6509
10793.548548 78.501 -30.0146
10871.763050 77.638 -35.8916
10950.544327 76.472 -32.5498
11029.896485 76.056 -15.6064
11109.823662 76.340 -10.6548
11190.330024 76.258 -15.3721
11271.419768 76.137 -13.3037
11353.097122 76.619 -8.8188
11435.366344 76.692 -17.7632
11518.231722 76.074 -19.7461
11601.697577 75.918 -13.4351
11685.768261 75.682 -20.3169
11770.448155 74.710 -21.6777
11855.741674 74.399 -2.1973
11941.653265 75.010 0.1250
12028.187408 75.445 -4.1846
12115.348612 75.812 -0.4570
12203.141422 76.270 -1.9995
12291.570415 76.126 -10.1172
12380.640201 75.520 -9.4995
12470.355424 75.017 -6.8467
12560.720760 74.730 -5.8218
12651.740920 74.911 -1.7573
12743.420650 75.411 -0.6221
12835.764729 75.539 -3.8755
12928.777972 75.563 -1.0298
13022.465227 76.269 4.6035
13116.831378 77.245 1.4648
13211.881345 77.638 -6.9014
13307.620084 77.337 -14.0415
13404.052584 76.666 -17.4590
13501.183875 76.148 -15.2100
13599.019019 76.414 -7.9219
13697.563116 76.878 -11.8779
13796.821305 76.790 -16.1670
13896.798760 76.844 -16.8057
13997.500692 76.972 -23.0254
14098.932352 76.743 -28.4663
14201.099028 76.460 -31.2310
14304.006046 76.049 -36.7197
14407.658770 75.522 -39.0957
14512.062604 75.192 -41.1885
14617.222992 74.563 -47.1016
14723.145416 73.668 -46.1387
14829.835397 73.046 -44.6973
14937.298497 72.494 -45.7271
15045.540320 72.171 -39.6226
15154.566507 72.223 -39.1226
15264.382743 72.272 -42.8237
15374.994752 72.195 -47.1074
15486.408302 71.730 -53.7544
15598.629201 71.019 -56.0244
15711.663298 70.464 -59.4307
15825.516487 69.622 -62.5088
15940.194703 68.446 -59.0156
16055.703925 67.490 -59.0103
16172.050174 66.832 -54.7163
16289.239516 66.375 -53.8867
16407.278061 65.609 -52.0254
16526.171961 65.170 -48.1724
16645.927415 64.940 -41.3335
16766.550667 64.662 -1.0796
16888.048005 64.951 7.1367
17010.425762 65.928 9.8926
17133.690320 66.652 4.9502
17257.848103 67.080 11.0181
17382.905584 67.583 9.7949
17508.869284 68.133 14.1460
17635.745768 68.659 13.1577
17763.541652 69.160 11.2920
17892.263597 69.456 7.9233
18021.918315 69.242 4.5962
18152.512564 68.987 4.0469
18284.053153 68.866 2.9941
18416.546939 68.974 4.7046
18550.000830 69.391 3.6021
18684.421783 69.843 -0.6836
18819.816805 69.942 -8.3628
18956.192956 69.636 -15.5801
19093.557344 69.066 -21.7666
19231.917131 68.273 -26.3755
19371.279531 67.364 -30.4629
19511.651807 66.387 -33.9614
19653.041280 65.315 -37.4219
19795.455318 63.994 -40.6611
19938.901348 62.823 -41.1997
