* Measurement data measured by REW V5.31.1
* Source: Scarlett 2i4 USB, MICROPHONE, R, volume: no control
* Format: 512k Log Swept Sine, 1 sweep at -18.0 dBFS with no timing reference
* Dated: May 16, 2024 6:58:49 AM
* REW Settings:
*  C-weighting compensation: Off
*  Target level: 75.0 dB
* Note: ; 
* Measurement: bns-back1-p1-rl
* Smoothing: 1/48 octave
* Frequency Step: 96 ppo
* Start Frequency: 10.093689 Hz
*
* Freq(Hz) SPL(dB) Phase(degrees)
10.093689 30.239 84.9149
10.166832 30.147 78.2830
10.240505 30.035 71.2563
10.314712 29.924 63.7899
10.389457 29.837 55.8115
10.464743 29.876 47.2723
10.540575 30.119 38.4584
10.616956 30.493 29.7195
10.693891 30.955 21.2121
10.771383 31.482 12.9178
10.849437 32.092 4.7781
10.928057 32.779 -2.9535
11.007246 33.499 -10.1430
11.087009 34.205 -16.8637
11.167350 34.885 -23.3750
11.248273 35.556 -29.7371
11.329783 36.205 -35.7505
11.411883 36.813 -41.3747
11.494578 37.370 -46.8041
11.577873 37.881 -52.3236
11.661771 38.344 -57.6862
11.746277 38.753 -62.7252
11.831395 39.103 -67.5422
11.917130 39.396 -72.5485
12.003487 39.628 -77.4883
12.090469 39.794 -82.1024
12.178081 39.892 -86.4581
12.266329 39.921 -90.9995
12.355216 39.874 -95.4532
12.444747 39.739 -99.4743
12.534926 39.517 -103.1897
12.625760 39.205 -106.9253
12.717251 38.784 -110.3618
12.809406 38.228 -113.0378
12.902228 37.518 -115.0755
12.995723 36.683 -116.4182
13.089895 35.768 -116.5401
13.184750 34.746 -114.5914
13.280292 33.578 -109.6932
13.376526 32.586 -101.2344
13.473458 32.224 -89.8854
13.571093 32.684 -76.8150
13.669434 33.691 -65.2969
13.768489 34.890 -57.9227
13.868261 36.124 -54.4045
13.968756 37.448 -53.1130
14.069979 38.719 -53.4493
14.171936 39.796 -55.0712
14.274632 40.690 -57.7267
14.378072 41.443 -60.9156
14.482261 42.078 -64.3696
14.587206 42.593 -68.3949
14.692910 42.991 -72.8014
14.799381 43.283 -77.1986
14.906624 43.473 -81.8429
15.014643 43.555 -86.9197
15.123446 43.528 -91.9567
15.233036 43.391 -97.0356
15.343421 43.139 -102.6251
15.454606 42.750 -108.2347
15.566596 42.221 -113.7977
15.679398 41.540 -120.0021
15.793018 40.642 -126.3940
15.907460 39.483 -132.8392
16.022732 38.058 -140.4178
16.138840 36.317 -149.0403
16.255788 34.005 -159.4166
16.373585 31.440 -177.7557
16.492234 30.072 134.7473
16.611744 31.061 61.3925
16.732119 33.289 33.8216
16.853367 35.407 20.9506
16.975494 37.242 10.6177
17.098505 38.836 1.9509
17.222408 40.070 -5.5972
17.347209 40.958 -13.4946
17.472914 41.595 -20.8612
17.599530 42.037 -27.9229
17.727063 42.273 -35.4358
17.855521 42.321 -42.3366
17.984909 42.187 -49.4150
18.115235 41.854 -56.6200
18.246506 41.313 -63.0794
18.378727 40.555 -69.7689
18.511907 39.518 -75.9266
18.646052 38.168 -80.9878
18.781169 36.470 -85.1535
18.917265 34.268 -86.5168
19.054347 31.592 -81.3876
19.192423 29.665 -64.9879
19.331499 29.568 -34.8048
19.471583 30.657 -13.6129
19.612682 32.096 -7.4264
19.754804 33.656 -8.0905
19.897956 34.761 -10.4788
20.042144 35.292 -15.0802
20.187378 35.362 -19.1394
20.333664 34.987 -22.0571
20.481010 34.301 -23.5198
20.629424 33.483 -19.7944
20.778913 32.843 -9.8815
20.929486 33.355 4.2910
21.081150 35.053 17.7072
21.233912 37.103 22.8008
21.387782 39.200 22.5505
21.542767 41.097 19.0319
21.698874 42.632 12.9503
21.856113 43.872 6.1105
22.014492 44.845 -1.6874
22.174018 45.559 -9.7976
22.334700 46.033 -17.8133
22.496546 46.260 -26.0450
22.659566 46.237 -33.3806
22.823766 45.953 -40.5627
22.989157 45.383 -45.9618
23.155745 44.543 -49.9686
23.323542 43.489 -50.5239
23.492554 42.421 -46.5188
23.662790 41.964 -37.3719
23.834261 42.284 -24.7775
24.006973 43.390 -15.8179
24.180938 44.932 -11.1697
24.356163 46.309 -10.7131
24.532658 47.459 -12.3260
24.710431 48.308 -14.7758
24.889493 48.901 -17.2982
25.069853 49.296 -18.8488
25.251519 49.621 -19.2301
25.434502 50.005 -17.7440
25.618811 50.616 -15.4034
25.804456 51.540 -12.5187
25.991445 52.696 -11.2632
26.179790 53.998 -11.5229
26.369500 55.260 -14.1069
26.560584 56.414 -18.1450
26.753053 57.386 -23.6262
26.946917 58.157 -29.7603
27.142185 58.714 -36.6335
27.338869 59.052 -43.3882
27.536977 59.170 -50.2728
27.736522 59.075 -56.3638
27.937512 58.788 -61.6979
28.139959 58.340 -65.4799
28.343872 57.845 -67.4019
28.549264 57.421 -66.9532
28.756143 57.304 -64.7312
28.964522 57.570 -61.9263
29.174411 58.223 -60.0649
29.385821 59.048 -60.4541
29.598763 59.900 -62.8208
29.813248 60.630 -67.0311
30.029287 61.185 -72.2083
30.246891 61.537 -78.1722
30.466073 61.678 -84.1697
30.686842 61.615 -89.8626
30.909212 61.363 -94.9771
31.133193 60.960 -98.7865
31.358797 60.475 -101.0979
31.586035 59.998 -101.4290
31.814921 59.685 -99.9343
32.045465 59.639 -97.3273
32.277680 59.900 -94.5280
32.511577 60.389 -92.8131
32.747169 60.975 -92.4634
32.984469 61.553 -93.3700
33.223488 62.040 -95.2178
33.464239 62.408 -97.4049
33.706735 62.656 -99.5499
33.950987 62.806 -101.2690
34.197010 62.913 -102.1175
34.444816 63.055 -102.0203
34.694417 63.310 -101.1097
34.945827 63.744 -99.7912
35.199059 64.363 -98.9247
35.454126 65.106 -99.1064
35.711041 65.895 -100.5699
35.969818 66.643 -103.3428
36.230470 67.287 -107.1899
36.493011 67.792 -111.7172
36.757455 68.144 -116.6051
37.023814 68.344 -121.5629
37.292104 68.407 -126.2505
37.562338 68.364 -130.3813
37.834530 68.258 -133.8367
38.108695 68.134 -136.5848
38.384846 68.037 -138.7135
38.662999 67.996 -140.4630
38.943167 68.012 -142.1425
39.225365 68.068 -143.9315
39.509608 68.139 -145.8744
39.795911 68.210 -147.9182
40.084289 68.277 -149.9634
40.374756 68.354 -151.9373
40.667328 68.460 -153.8812
40.962020 68.604 -155.9716
41.258848 68.776 -158.4235
41.557827 68.948 -161.3920
41.858972 69.079 -164.9125
42.162299 69.130 -168.8879
42.467824 69.073 -173.1108
42.775564 68.893 -177.3024
43.085533 68.595 178.8369
43.397749 68.200 175.5645
43.712227 67.744 173.0233
44.028983 67.262 171.1970
44.348036 66.776 169.9501
44.669400 66.287 169.1478
44.993093 65.778 168.8054
45.319131 65.242 169.1633
45.647532 64.706 170.6035
45.978313 64.249 173.3773
46.311491 63.975 177.2305
46.647083 63.939 -178.6960
46.985107 64.104 -175.3528
47.325581 64.364 -173.1320
47.668521 64.630 -171.7827
48.013947 64.865 -170.7841
48.361876 65.092 -169.7352
48.712326 65.348 -168.5577
49.065315 65.659 -167.4443
49.420863 66.016 -166.6099
49.778987 66.400 -166.0793
50.139706 66.810 -165.7015
50.503039 67.272 -165.3566
50.869005 67.822 -165.1719
51.237623 68.478 -165.5709
51.608912 69.206 -167.0801
51.982891 69.940 -170.0582
52.359580 70.596 -174.5779
52.739000 71.105 179.5219
53.121168 71.408 172.5381
53.506106 71.462 164.8456
53.893833 71.232 156.8604
54.284370 70.694 149.1018
54.677737 69.839 142.2492
55.073955 68.687 137.1592
55.473043 67.318 134.7865
55.875024 65.891 135.8030
56.279917 64.622 139.9418
56.687745 63.672 145.6659
57.098527 63.046 151.5115
57.512287 62.674 157.2588
57.929045 62.545 163.0659
58.348822 62.670 168.2625
58.771642 62.964 171.6001
59.197525 63.234 172.5627
59.626495 63.300 171.7744
60.058573 63.052 170.4445
60.493782 62.471 170.0557
60.932145 61.626 172.1299
61.373685 60.692 178.0504
61.818424 59.977 -171.3997
62.266386 59.860 -157.0523
62.717593 60.541 -141.9975
63.172071 61.846 -129.9353
63.629842 63.405 -122.2995
64.090930 64.947 -118.1985
64.555359 66.371 -116.1174
65.023154 67.696 -114.9459
65.494339 68.972 -114.2932
65.968938 70.225 -114.3145
66.446976 71.442 -115.2425
66.928478 72.588 -117.1147
67.413469 73.636 -119.7521
67.901975 74.580 -122.8999
68.394021 75.422 -126.3323
68.889632 76.174 -129.8873
69.388835 76.852 -133.4485
69.891655 77.469 -136.9596
70.398118 78.041 -140.3793
70.908252 78.585 -143.6776
71.422083 79.125 -146.8768
71.939636 79.675 -150.1469
72.460941 80.227 -153.8307
72.986023 80.735 -158.1886
73.514909 81.137 -163.1835
74.047629 81.393 -168.3942
74.584208 81.510 -173.2557
75.124676 81.537 -177.3633
75.669061 81.534 179.2632
76.217390 81.526 176.3209
76.769692 81.504 173.7203
77.325997 81.474 171.7868
77.886333 81.508 170.8848
78.450730 81.696 170.6383
79.019216 82.049 169.9672
79.591822 82.466 168.0537
80.168577 82.831 165.1115
80.749512 83.100 161.8806
81.334656 83.304 158.9703
81.924040 83.503 156.4356
82.517696 83.725 153.9481
83.115653 83.959 151.1985
83.717943 84.172 148.1609
84.324598 84.353 145.0718
84.935649 84.520 142.1802
85.551128 84.711 139.4841
86.171066 84.946 136.6657
86.795497 85.205 133.3745
87.424453 85.452 129.5562
88.057967 85.666 125.3795
88.696071 85.847 120.9195
89.338800 85.986 116.0789
89.986185 86.061 110.8001
90.638262 86.046 105.2324
91.295065 85.936 99.6505
91.956626 85.750 94.2537
92.622982 85.513 89.0439
93.294166 85.242 83.8553
93.970214 84.928 78.5073
94.651161 84.552 72.9594
95.337042 84.099 67.3071
96.027894 83.566 61.6176
96.723752 82.956 55.8205
97.424652 82.261 49.7788
98.130631 81.462 43.3629
98.841726 80.535 36.3940
99.557974 79.443 28.6208
100.279412 78.139 19.7401
101.006078 76.573 9.2278
101.738010 74.719 -4.0363
102.475245 72.648 -22.5332
103.217823 70.796 -51.3256
103.965782 70.114 -91.0367
104.719161 70.912 -124.4231
105.477999 72.329 -144.7798
106.242336 73.797 -156.1670
107.012212 75.309 -161.6453
107.787666 76.914 -164.5728
108.568740 78.510 -167.9078
109.355474 79.964 -172.4508
110.147909 81.224 -177.6730
110.946086 82.303 176.9476
111.750047 83.231 171.6067
112.559834 84.031 166.4066
113.375489 84.734 161.5042
114.197055 85.382 157.0134
115.024574 86.015 152.7994
115.858089 86.640 148.3813
116.697645 87.216 143.3943
117.543284 87.702 137.9855
118.395051 88.086 132.4177
119.252990 88.363 126.7659
120.117147 88.529 121.2328
120.987565 88.603 116.1493
121.864291 88.616 111.6074
122.747370 88.598 107.6191
123.636848 88.583 104.2878
124.532771 88.624 101.5735
125.435187 88.767 99.1337
126.344142 89.007 96.1086
127.259684 89.248 91.6663
128.181860 89.363 85.9161
129.110718 89.273 79.6099
130.046308 88.953 73.4346
130.988677 88.407 67.9595
131.937875 87.665 63.8702
132.893951 86.800 61.9435
133.856956 85.956 62.6410
134.826938 85.303 65.5461
135.803950 84.942 69.1113
136.788041 84.824 72.0103
137.779264 84.846 74.3126
138.777669 84.994 76.8372
139.783309 85.354 79.9937
140.796237 85.966 82.4006
141.816504 86.659 81.7653
142.844165 87.172 78.2463
143.879273 87.392 74.1753
144.921881 87.416 71.6057
145.972045 87.456 71.2900
147.029819 87.701 72.0646
148.095257 88.150 71.8264
149.168417 88.653 69.6460
150.249353 89.076 66.0725
151.338121 89.368 61.7623
152.434780 89.501 56.8558
153.539385 89.457 51.9696
154.651995 89.261 47.5278
155.772667 88.917 43.3944
156.901460 88.416 40.1791
158.038432 87.827 39.1073
159.183644 87.287 39.9141
160.337154 86.878 41.7872
161.499023 86.690 45.4036
162.669312 86.861 50.1382
163.848081 87.417 54.1335
165.035392 88.218 55.8907
166.231306 89.067 55.0197
167.435887 89.829 52.2445
168.649196 90.463 48.4865
169.871298 90.991 44.3926
171.102255 91.439 39.8239
172.342133 91.791 34.6055
173.590995 92.032 29.0009
174.848907 92.151 23.0957
176.115934 92.126 16.9393
177.392143 91.941 11.0153
178.677599 91.621 5.8145
179.972371 91.211 1.5131
181.276525 90.780 -1.5548
182.590129 90.428 -3.5646
183.913252 90.188 -5.8185
185.245964 89.963 -9.3589
186.588332 89.593 -14.0604
187.940428 88.957 -18.5780
189.302322 88.101 -20.3049
190.674085 87.307 -17.6000
192.055788 86.913 -12.7407
193.447503 86.973 -9.2451
194.849303 87.326 -7.5406
196.261262 87.842 -7.3699
197.683452 88.416 -9.1177
199.115948 88.925 -13.1161
200.558824 89.229 -19.1954
202.012156 89.232 -26.2681
203.476019 88.923 -32.8831
204.950490 88.396 -37.6741
206.435646 87.845 -40.0764
207.931564 87.494 -40.8204
209.438322 87.470 -41.8530
210.955998 87.683 -45.5781
212.484672 87.873 -53.3556
214.024424 87.761 -65.0502
215.575333 87.155 -79.8834
217.137481 85.950 -97.5891
218.710948 84.170 -120.0256
220.295818 82.242 -157.7980
221.892172 81.479 111.6300
223.500094 82.557 56.0510
225.119668 84.196 30.7600
226.750978 85.549 13.4360
228.394109 86.517 -0.2596
230.049147 87.174 -12.1782
231.716178 87.567 -23.4863
233.395289 87.683 -34.9415
235.086567 87.457 -46.8833
236.790102 86.789 -58.8457
238.505980 85.612 -69.1368
240.234293 83.991 -74.7349
241.975130 82.304 -71.9009
243.728581 81.295 -62.5005
245.494739 81.225 -58.0070
247.273695 81.433 -61.1676
249.065542 81.418 -66.5829
250.870374 81.273 -70.2065
252.688284 81.324 -73.0752
254.519367 81.646 -79.3008
256.363720 81.998 -91.1675
258.221437 82.094 -109.0006
260.092616 81.798 -132.1328
261.977354 81.222 -159.7324
263.875750 80.740 169.0764
265.787903 80.761 136.7433
267.713911 81.279 106.7335
269.653877 81.905 80.8099
271.607900 82.323 59.4333
273.576083 82.474 42.9824
275.558528 82.500 31.6588
277.555338 82.598 24.1749
279.566619 82.841 18.1953
281.592474 83.199 12.7540
283.633009 83.636 7.4442
285.688331 84.034 0.6200
287.758546 84.141 -8.7802
289.843763 83.771 -18.0718
291.944090 83.009 -23.8125
294.059638 82.105 -25.8977
296.190515 81.318 -24.6547
298.336833 81.041 -18.1093
300.498705 81.570 -10.8718
302.676243 82.515 -10.5927
304.869559 83.316 -15.7024
307.078770 83.755 -22.7074
309.303989 83.816 -30.1035
311.545334 83.507 -37.2177
313.802919 82.822 -43.5245
316.076865 81.789 -47.5096
318.367288 80.865 -42.1459
320.674309 81.245 -22.7943
322.998047 82.994 -12.5978
325.338624 84.752 -18.5634
327.696162 85.760 -32.1617
330.070783 85.847 -47.3932
332.462612 85.117 -59.3188
334.871773 83.977 -63.6360
337.298392 83.183 -60.1080
339.742595 83.312 -56.0774
342.204510 84.039 -58.6440
344.684265 84.637 -68.5366
347.181989 84.614 -83.2283
349.697813 83.757 -98.9048
352.231868 82.036 -112.4038
354.784285 79.498 -120.0469
357.355198 76.504 -109.3281
359.944741 74.802 -74.3223
362.553049 76.232 -42.4550
365.180258 78.740 -37.6010
367.826505 80.492 -52.0382
370.491927 81.162 -71.6885
373.176665 80.894 -92.1885
375.880856 79.845 -114.8770
378.604644 78.236 -143.9822
381.348169 77.056 158.6997
384.111575 77.806 69.3308
386.895006 79.754 29.7317
389.698607 81.534 5.3179
392.522524 82.801 -13.9424
395.366904 83.615 -30.4158
398.231895 84.120 -44.9370
401.117648 84.353 -59.6523
404.024312 84.116 -76.5112
406.952038 83.159 -93.2673
409.900981 81.482 -104.9556
412.871292 79.481 -107.8813
415.863128 77.848 -107.5654
418.876643 76.768 -115.1841
421.911996 75.857 -132.7146
424.969344 75.532 -168.9580
428.048847 76.818 90.9209
431.150666 79.003 31.6287
434.274961 80.883 0.7366
437.421897 82.204 -21.8960
440.591636 83.053 -40.5991
443.784345 83.515 -57.4636
447.000189 83.613 -73.9824
450.239337 83.245 -91.4133
453.501956 82.208 -109.3582
456.788219 80.331 -124.0969
460.098294 77.755 -125.8057
463.432356 75.483 -107.0000
466.790578 74.757 -96.8508
470.173135 74.969 -98.4048
473.580203 75.168 -103.6040
477.011961 74.931 -112.2368
480.468586 74.052 -120.6592
483.950259 72.646 -124.4194
487.457163 71.019 -124.5332
490.989478 69.496 -120.4048
494.547390 68.811 -103.1787
498.131084 69.470 -89.7473
501.740748 70.568 -91.9524
505.376568 71.550 -97.3606
509.038735 72.298 -106.9902
512.727439 72.536 -122.0508
516.442874 72.086 -139.6162
520.185232 70.980 -158.0461
523.954708 69.270 -177.5117
527.751500 67.308 176.0093
531.575805 66.533 -160.3994
535.427822 67.322 -176.0938
539.307753 68.431 155.9561
543.215800 69.917 133.9539
547.152165 72.128 119.1953
551.117055 74.307 99.9780
555.110677 75.772 77.0850
559.133237 76.486 56.1733
563.184947 76.644 39.5237
567.266018 76.611 28.9429
571.376661 76.991 25.5752
575.517092 78.119 25.5701
579.687526 79.313 16.2202
583.888181 79.922 2.7461
588.119275 80.101 -7.4900
592.381030 80.196 -15.4226
596.673667 80.324 -22.7434
600.997410 80.475 -30.3325
605.352485 80.730 -36.7065
609.739119 81.221 -43.5659
614.157540 81.606 -56.6670
618.607979 81.293 -74.9780
623.090667 79.943 -92.8606
627.605839 77.612 -104.2971
632.153730 75.007 -102.6333
636.734576 74.373 -55.0493
641.348617 76.122 -36.2700
645.996094 77.446 -55.0356
650.677248 77.337 -77.8455
655.392323 76.008 -95.7532
660.141566 74.430 -107.9114
664.925224 74.560 -52.3757
669.743546 76.491 -11.7500
674.596784 78.074 -35.7896
679.485191 78.701 -58.5227
684.409020 78.714 -77.6160
689.368530 78.124 -99.0183
694.363979 76.704 -122.1191
699.395626 75.217 -141.7908
704.463736 75.488 -15.7217
709.568570 76.880 -40.3914
714.710396 77.480 -69.9536
719.889483 76.783 -95.6587
725.106099 75.012 -115.0513
730.360516 72.797 -130.3787
735.653010 71.708 -92.1782
740.983855 72.812 -30.6824
746.353329 74.004 -53.3064
751.761713 74.089 -74.0071
757.209288 73.618 -81.2595
762.696339 73.536 -85.0234
768.223151 73.244 -100.0833
773.790013 71.954 -110.3293
779.397214 70.671 -90.3459
785.045047 70.922 -79.4990
790.733808 71.565 -88.6838
796.463791 71.223 -100.9890
802.235296 70.892 -88.7090
808.048623 72.391 -68.4429
813.904077 74.242 -75.6565
819.801961 74.789 -98.9741
825.742584 74.080 -118.2583
831.726255 73.251 -122.8242
837.753287 73.299 -128.5061
843.823992 73.349 -149.5674
849.938689 72.817 -174.8928
856.097695 71.908 155.1431
862.301332 71.261 116.9512
868.549922 70.989 59.4497
874.843793 70.178 -3.4138
881.183272 68.811 -55.1458
887.568689 67.881 -63.7886
894.000378 68.105 23.7493
900.478673 68.857 -8.3958
907.003913 69.090 -35.5593
913.576437 68.754 -44.4060
920.196588 69.035 -37.4553
926.864712 70.019 -45.5151
933.581156 70.968 -59.2568
940.346270 71.250 -77.3484
947.160407 70.655 -91.0979
954.023921 70.367 -88.9265
960.937172 71.748 -87.5898
967.900519 73.512 -102.2849
974.914325 74.016 -130.5938
981.978956 73.155 -153.7244
989.094780 72.597 -151.1980
996.262169 73.365 -161.9226
1003.481495 74.077 167.4167
1010.753136 74.144 132.7368
1018.077470 73.773 96.7114
1025.454879 73.010 56.2573
1032.885748 71.509 25.0630
1040.370463 70.457 104.8838
1047.909417 71.181 70.7146
1055.503000 72.121 14.7197
1063.151610 73.090 -80.3435
1070.855645 75.220 -170.9912
1078.615506 77.991 140.9592
1086.431599 79.950 99.0569
1094.304330 80.623 59.8677
1102.234110 80.326 25.8047
1110.221353 79.294 -6.5029
1118.266475 77.312 -33.6953
1126.369895 75.158 -24.5850
1134.532035 74.897 -3.6274
1142.753322 75.727 -29.0537
1151.034184 75.755 -66.1826
1159.375052 74.233 -107.1265
1167.776361 71.278 -130.6953
1176.238550 68.583 -128.9736
1184.762060 68.338 125.5850
1193.347334 68.998 70.4194
1201.994821 69.003 35.1631
1210.704971 68.930 18.8101
1219.478238 69.956 44.4580
1228.315080 71.601 36.7456
1237.215957 72.546 10.0015
1246.181334 72.305 -20.2271
1255.211678 71.127 -41.2480
1264.307459 70.619 32.8071
1273.469152 71.287 18.6997
1282.697235 71.509 -9.2515
1291.992188 71.559 -30.1499
1301.354495 72.273 -65.1196
1310.784647 72.675 -158.6797
1320.283132 72.214 99.8506
1329.850448 71.410 62.8472
1339.487093 70.636 38.3594
1349.193569 69.358 26.5605
1358.970381 68.919 44.1802
1368.818041 70.832 56.4404
1378.737061 73.560 53.5298
1388.727958 75.753 39.2124
1398.791253 76.662 15.5317
1408.927471 75.946 -6.6582
1419.137140 74.306 -5.4854
1429.420793 73.251 0.7988
1439.778965 73.504 7.2212
1450.212197 74.593 7.0444
1460.721033 75.149 -8.8921
1471.306019 75.697 -8.2178
1481.967709 76.637 -14.5649
1492.706658 76.463 -44.3784
1503.523426 74.695 -78.1958
1514.418576 71.938 -101.7085
1525.392678 70.316 38.2158
1536.446302 70.683 13.2441
1547.580025 71.034 -13.0698
1558.794428 71.535 -15.8228
1570.090095 73.409 69.1055
1581.467615 75.584 44.7373
1592.927581 76.434 13.5840
1604.470591 75.620 -5.6294
1616.097246 74.751 18.5425
1627.808153 74.898 16.9937
1639.603922 75.019 10.4658
1651.485168 74.863 1.0210
1663.452510 74.032 -5.4199
1675.506573 73.546 -7.6060
1687.647984 74.339 -9.6846
1699.877377 76.174 32.6587
1712.195390 77.343 20.6597
1724.602663 76.786 -4.0132
1737.099845 75.671 -5.5664
1749.687587 76.150 25.1680
1762.366544 77.316 22.1875
1775.137379 77.824 4.3779
1788.000756 77.645 -13.3960
1800.957346 76.793 -19.5762
1814.007826 76.401 1.8018
1827.152874 76.693 -2.8916
1840.393177 76.595 -12.4521
1853.729425 76.377 -18.6250
1867.162312 76.140 -23.5737
1880.692540 76.073 -17.5591
1894.320813 75.899 -22.2437
1908.047843 75.339 -24.8062
1921.874344 75.425 -21.3745
1935.801038 76.076 -27.4795
1949.828650 76.210 -42.4463
1963.957912 75.812 -37.5098
1978.189561 76.002 -12.7202
1992.524338 76.332 -26.4199
2006.962991 76.057 -25.7969
2021.506272 75.806 -11.9346
2036.154940 75.755 -17.0469
2050.909758 76.145 -18.9492
2065.771495 76.587 -29.3774
2080.740927 76.082 -44.5542
2095.818833 74.696 -50.0605
2111.006001 73.755 -45.5254
2126.303220 74.003 -47.3481
2141.711290 74.959 -8.4624
2157.231013 76.105 0.5542
2172.863198 76.316 -17.4922
2188.608660 75.736 -28.4741
2204.468221 74.918 -33.6333
2220.442706 74.087 -35.6118
2236.532950 73.412 -36.0762
2252.739789 73.183 -33.2666
2269.064070 73.843 -26.1421
2285.506644 75.156 -17.0078
2302.068367 75.634 -28.0327
2318.750104 74.935 -33.5630
2335.552723 74.930 -20.7075
2352.477101 76.101 -20.1919
2369.524119 77.318 -25.8481
2386.694668 78.271 -33.5835
2403.989641 78.130 -44.5737
2421.409941 77.132 -31.1660
2438.956476 76.509 -29.9941
2456.630160 76.667 -23.6592
2474.431915 77.474 -14.5132
2492.362668 77.986 -26.4702
2510.423356 77.927 -37.5000
2528.614918 77.515 -43.8989
2546.938304 77.074 -48.4526
2565.394469 76.993 -49.9878
2583.984375 76.699 -60.3921
2602.708991 75.632 -65.6943
2621.569293 74.259 -67.5747
2640.566265 72.841 -69.4761
2659.700897 72.003 -57.2314
2678.974186 72.366 -37.3345
2698.387137 73.468 -32.5015
2717.940763 74.887 -27.8857
2737.636082 75.851 -33.1841
2757.474121 76.397 -27.0962
2777.455915 76.669 -36.2124
2797.582506 76.035 -52.4648
2817.854942 75.323 -54.1753
2838.274281 75.386 -55.0464
2858.841586 75.638 -18.5200
2879.557931 75.821 -17.0259
2900.424394 75.926 -19.5532
2921.442065 76.271 -26.4204
2942.612039 76.341 -39.0874
2963.935418 76.249 -47.2764
2985.413316 76.272 -50.3438
3007.046852 76.363 -35.6289
3028.837153 76.280 -35.7949
3050.785356 76.559 -20.1807
3072.892604 77.543 -18.6260
3095.160050 78.486 -29.8394
3117.588856 79.078 -49.8276
3140.180190 78.371 -76.6367
3162.935230 76.340 -96.2383
3185.855163 74.917 -77.8193
3208.941182 75.863 22.3667
3232.194493 77.610 7.5640
3255.616307 78.398 -15.4038
3279.207844 77.812 -33.3989
3302.970336 76.876 -42.6260
3326.905021 75.975 -55.7617
3351.013146 75.452 -45.0571
3375.295969 76.495 5.1260
3399.754755 78.264 -4.1030
3424.390779 79.055 -23.7788
3449.205326 78.995 -41.8706
3474.199690 78.409 -54.3242
3499.375173 77.629 -16.3789
3524.733088 78.276 10.1099
3550.274757 79.639 -2.1743
3576.001511 80.116 -20.9795
3601.914692 79.754 -33.5752
3628.015651 79.233 -37.0610
3654.305748 78.995 -39.5293
3680.786354 79.235 -37.0322
3707.458849 80.042 -36.5571
3734.324624 80.346 -49.3271
3761.385080 79.678 -59.2573
3788.641627 78.900 -55.1367
3816.095686 78.552 -56.6040
3843.748688 78.595 -53.8857
3871.602076 79.219 -47.3218
3899.657300 79.463 -57.4141
3927.915825 78.943 -66.2852
3956.379122 78.475 -66.5845
3985.048676 78.946 -51.6733
4013.925981 80.232 -48.5024
4043.012544 81.022 -64.6211
4072.309879 80.542 -84.4302
4101.819515 78.904 -91.7490
4131.542990 77.777 -64.5615
4161.481854 78.968 -50.4395
4191.637667 80.930 -60.2173
4222.012001 81.808 -85.0039
4252.606441 80.772 -111.2993
4283.422580 78.681 -101.3354
4314.462026 78.283 -61.9868
4345.726396 79.034 -76.7583
4377.217321 78.851 -97.0752
4408.936442 78.019 -103.3242
4440.885413 77.313 -107.7744
4473.065899 76.349 -105.2285
4505.479579 76.317 -87.6079
4538.128141 76.677 -100.3994
4571.013288 76.068 -117.8955
4604.136735 75.342 -128.0845
4637.500207 75.605 -144.7021
4671.105446 76.856 -60.9727
4704.954201 78.219 -91.1899
4739.048239 78.293 -142.2192
4773.389336 76.966 16.5952
4807.979283 75.694 -40.6348
4842.819883 74.960 -76.5508
4877.912952 73.977 -105.9204
4913.260320 72.787 -126.2603
4948.863830 71.818 -82.1514
4984.725337 72.480 -77.6675
5020.846712 73.823 -118.9424
5057.229836 74.657 158.0659
5093.876609 75.104 -9.7275
5130.788938 75.968 -123.9448
5167.968750 77.052 108.3662
5205.417982 77.469 51.3228
5243.138586 77.380 12.5327
5281.132530 76.860 -18.4609
5319.401793 75.358 -39.4565
5357.948371 73.593 -28.9756
5396.774274 73.603 -13.0020
5435.881525 74.357 -25.7720
5475.272163 74.097 -47.6318
5514.948243 73.786 -58.7114
5554.911831 74.757 19.0498
5595.165012 76.173 8.7837
5635.709884 76.934 -24.0190
5676.548561 76.980 -47.2271
5717.683172 77.082 41.5508
5759.115861 77.477 17.2061
5800.848789 77.096 -7.7256
5842.884130 76.431 -7.0962
5885.224077 76.450 -6.5083
5927.870837 76.531 -17.9312
5970.826633 76.985 -15.5269
6014.093704 77.952 -18.3774
6057.674306 78.062 -37.2695
6101.570711 77.007 -43.3354
6145.785208 76.258 -31.6001
6190.320101 76.020 -41.4326
6235.177712 75.548 -48.9385
6280.360380 75.602 -20.9429
6325.870460 76.331 -19.3237
6371.710325 76.858 -29.3823
6417.882365 77.421 -36.0405
6464.388986 77.960 -46.9360
6511.232613 77.906 -63.2080
6558.415689 77.314 -69.7559
6605.940673 77.728 -62.7222
6653.810042 78.609 -82.3091
6702.026292 78.162 -111.0337
6750.591937 76.578 -68.2188
6799.509509 75.492 -60.3984
6848.781558 74.967 -81.2656
6898.410653 74.813 -52.4922
6948.399380 74.802 -59.9536
6998.750346 74.366 -79.4067
7049.466176 74.399 -44.8291
7100.549514 75.014 -6.6836
7152.003023 75.243 -34.0137
7203.829385 75.741 -6.8911
7256.031302 76.667 -18.7241
7308.611496 76.934 -55.4097
7361.572708 77.090 -2.9912
7414.917698 77.345 -4.8374
7468.649249 77.410 -12.0479
7522.770160 77.707 9.4238
7577.283253 77.185 -17.6787
7632.191371 75.592 -27.4282
7687.497376 74.138 -20.2686
7743.204151 73.433 -13.5977
7799.314600 73.714 -5.9375
7855.831649 74.516 -11.0317
7912.758244 75.390 -20.6509
7970.097352 76.048 -25.4766
8027.851962 76.811 -20.4233
8086.025087 76.972 -37.2700
8144.619758 75.805 -49.9956
8203.639030 74.492 -53.3560
8263.085980 74.032 -48.1768
8322.963708 74.205 -25.9829
8383.275334 74.432 -30.4648
8444.024002 73.998 -37.0605
8505.212881 73.398 -35.2070
8566.845160 73.429 -43.6118
8628.924051 73.896 -31.0933
8691.452792 74.124 -24.7319
8754.434642 73.170 -41.2456
8817.872884 72.195 -35.6572
8881.770826 72.182 -30.5532
8946.131799 72.208 -24.0308
9010.959157 73.023 -6.3882
9076.256282 74.143 -16.2988
9142.026576 74.556 -14.7661
9208.273470 74.155 -14.2285
9275.000415 72.809 -24.6240
9342.210891 71.957 -31.4678
9409.908403 72.382 -22.0205
9478.096478 73.020 -6.4727
9546.778672 72.815 -11.2104
9615.958566 72.307 2.7852
9685.639765 72.258 11.7969
9755.825904 72.463 5.0669
9826.520640 72.753 -2.3330
9897.727659 73.149 -11.5020
9969.450674 73.311 -5.4653
10041.693423 73.370 -1.1602
10114.459673 73.434 0.8809
10187.753217 73.074 -15.1191
10261.577877 72.056 -12.3267
10335.937500 71.876 -7.8237
10410.835964 72.245 -21.2559
10486.277173 72.217 -14.0640
10562.265060 71.941 -0.3521
10638.803587 72.046 24.1006
10715.896743 72.170 10.7124
10793.548548 71.575 8.5117
10871.763050 71.576 21.1152
10950.544327 72.266 11.3096
11029.896485 72.008 -6.0225
11109.823662 71.157 -10.7993
11190.330024 70.454 -20.6250
11271.419768 69.864 -22.6372
11353.097122 69.496 -24.2129
11435.366344 69.389 -8.0542
11518.231722 69.808 -4.2290
11601.697577 70.016 -13.5396
11685.768261 69.644 -20.6055
11770.448155 68.905 49.2051
11855.741674 68.272 52.1084
11941.653265 68.375 40.4482
12028.187408 68.095 14.6587
12115.348612 66.970 11.1392
12203.141422 66.099 48.5952
12291.570415 66.484 51.9521
12380.640201 67.543 39.6416
12470.355424 68.222 31.0518
12560.720760 68.622 34.5127
12651.740920 68.893 52.5586
12743.420650 68.726 72.3638
12835.764729 67.938 77.8677
12928.777972 67.306 90.5752
13022.465227 67.283 81.9995
13116.831378 67.327 67.3750
13211.881345 67.319 55.9668
13307.620084 66.819 59.8506
13404.052584 66.114 80.6699
13501.183875 65.941 92.3110
13599.019019 66.727 95.9385
13697.563116 67.847 91.6147
13796.821305 68.541 84.0938
13896.798760 68.780 74.8779
13997.500692 68.980 71.1265
14098.932352 68.978 67.7817
14201.099028 68.536 70.5273
14304.006046 68.007 65.0884
14407.658770 67.472 53.9478
14512.062604 66.782 47.9268
14617.222992 66.794 53.6548
14723.145416 66.917 50.2148
14829.835397 66.216 57.3726
14937.298497 65.331 81.9683
15045.540320 65.512 85.4590
15154.566507 66.349 74.7773
15264.382743 66.372 62.9341
15374.994752 65.473 61.6323
15486.408302 65.244 65.1724
15598.629201 65.081 67.1890
15711.663298 64.087 71.3613
15825.516487 62.845 77.1641
15940.194703 62.125 73.1445
16055.703925 61.815 69.8892
16172.050174 61.731 78.2588
16289.239516 61.762 88.3745
16407.278061 61.666 89.7622
16526.171961 61.619 84.8452
16645.927415 61.199 84.0356
16766.550667 61.176 110.6040
16888.048005 62.380 121.0234
17010.425762 63.925 110.0195
17133.690320 64.887 92.5015
17257.848103 64.798 74.5444
17382.905584 63.691 58.0557
17508.869284 61.944 45.7583
17635.745768 60.415 40.4736
17763.541652 59.726 61.8027
17892.263597 59.628 78.2974
18021.918315 59.172 82.6016
18152.512564 57.687 85.2065
18284.053153 55.782 83.3008
18416.546939 54.375 82.6787
18550.000830 53.861 93.3994
18684.421783 53.840 96.1719
18819.816805 53.637 104.6406
18956.192956 53.256 114.5063
19093.557344 53.114 107.7876
19231.917131 52.533 93.0713
19371.279531 51.225 72.5845
19511.651807 49.692 52.7622
19653.041280 48.275 35.5293
19795.455318 46.727 74.4585
19938.901348 45.612 101.9917
