* Measurement data measured by REW V5.31.1
* Source: Scarlett 2i4 USB, MICROPHONE, R, volume: no control
* Format: 512k Log Swept Sine, 1 sweep at -18.0 dBFS with no timing reference
* Dated: May 16, 2024 6:41:08 AM
* REW Settings:
*  C-weighting compensation: Off
*  Target level: 75.0 dB
* Note: ; 
* Measurement: bns-before-p1-r
* Smoothing: 1/48 octave
* Frequency Step: 96 ppo
* Start Frequency: 10.093689 Hz
*
* Freq(Hz) SPL(dB) Phase(degrees)
10.093689 36.324 -77.7012
10.166832 36.032 -85.4630
10.240505 35.674 -94.2638
10.314712 35.303 -103.8185
10.389457 34.930 -113.6551
10.464743 34.564 -123.4727
10.540575 34.202 -134.6188
10.616956 33.864 -147.1116
10.693891 33.597 -160.2213
10.771383 33.450 -173.0596
10.849437 33.435 173.3838
10.928057 33.535 158.5880
11.007246 33.739 143.8307
11.087009 34.045 130.2163
11.167350 34.466 117.3105
11.248273 35.005 104.0956
11.329783 35.614 91.6062
11.411883 36.239 80.4688
11.494578 36.856 70.3117
11.577873 37.486 60.0705
11.661771 38.114 50.3612
11.746277 38.712 41.6338
11.831395 39.265 33.6877
11.917130 39.782 25.6478
12.003487 40.260 17.9485
12.090469 40.691 11.0103
12.178081 41.069 4.7087
12.266329 41.396 -1.6295
12.355216 41.672 -7.6501
12.444747 41.897 -12.9430
12.534926 42.065 -17.6737
12.625760 42.179 -22.2405
12.717251 42.250 -26.3613
12.809406 42.286 -29.6793
12.902228 42.275 -32.3511
12.995723 42.239 -34.5121
13.089895 42.218 -36.0651
13.184750 42.235 -36.8218
13.280292 42.280 -36.7471
13.376526 42.387 -36.1764
13.473458 42.602 -35.4757
13.571093 42.942 -34.4235
13.669434 43.380 -33.2427
13.768489 43.883 -32.4939
13.868261 44.440 -32.3832
13.968756 45.054 -32.5785
14.069979 45.674 -33.2281
14.171936 46.254 -34.4713
14.274632 46.799 -36.2282
14.378072 47.299 -38.2650
14.482261 47.729 -40.4424
14.587206 48.085 -42.9662
14.692910 48.367 -45.6704
14.799381 48.567 -48.1949
14.906624 48.679 -50.6440
15.014643 48.707 -53.1260
15.123446 48.652 -55.1899
15.233036 48.511 -56.6735
15.343421 48.289 -57.7758
15.454606 48.030 -58.1252
15.566596 47.747 -57.3676
15.679398 47.456 -55.5334
15.793018 47.273 -52.7234
15.907460 47.281 -48.9357
16.022732 47.469 -44.3406
16.138840 47.849 -40.0635
16.255788 48.448 -36.5533
16.373585 49.212 -33.7963
16.492234 50.013 -32.3614
16.611744 50.811 -32.1298
16.732119 51.589 -32.7212
16.853367 52.293 -34.0330
16.975494 52.909 -36.0649
17.098505 53.439 -38.4572
17.222408 53.876 -40.9829
17.347209 54.217 -43.8473
17.472914 54.471 -46.6513
17.599530 54.640 -49.2594
17.727063 54.726 -51.8466
17.855521 54.750 -54.0081
17.984909 54.712 -55.7581
18.115235 54.637 -57.1085
18.246506 54.557 -57.8488
18.378727 54.479 -57.9834
18.511907 54.447 -57.7218
18.646052 54.487 -57.0067
18.781169 54.599 -56.0383
18.917265 54.790 -55.2419
19.054347 55.056 -54.5278
19.192423 55.354 -54.1544
19.331499 55.668 -54.2268
19.471583 55.972 -54.5667
19.612682 56.235 -55.1139
19.754804 56.455 -55.8527
19.897956 56.628 -56.3762
20.042144 56.755 -56.7444
20.187378 56.869 -56.7286
20.333664 56.992 -56.1361
20.481010 57.158 -55.1320
20.629424 57.423 -53.7743
20.778913 57.790 -52.1893
20.929486 58.269 -51.0050
21.081150 58.852 -50.1367
21.233912 59.479 -50.0760
21.387782 60.125 -50.7725
21.542767 60.740 -52.1088
21.698874 61.292 -54.1445
21.856113 61.765 -56.5153
22.014492 62.138 -59.1310
22.174018 62.414 -61.8171
22.334700 62.595 -64.2028
22.496546 62.695 -66.3411
22.659566 62.746 -67.7704
22.823766 62.777 -68.6036
22.989157 62.851 -68.6959
23.155745 62.996 -68.1566
23.323542 63.263 -67.4528
23.492554 63.649 -66.6769
23.662790 64.125 -66.5066
23.834261 64.658 -66.8438
24.006973 65.178 -67.9288
24.180938 65.661 -69.5389
24.356163 66.066 -71.4395
24.532658 66.391 -73.4650
24.710431 66.642 -75.1588
24.889493 66.852 -76.4727
25.069853 67.071 -77.0137
25.251519 67.363 -77.0556
25.434502 67.791 -76.5513
25.618811 68.374 -76.3409
25.804456 69.111 -76.5557
25.991445 69.927 -77.9940
26.179790 70.772 -80.4656
26.369500 71.563 -84.1794
26.560584 72.263 -88.7620
26.753053 72.831 -94.1230
26.946917 73.252 -99.8131
27.142185 73.510 -105.8420
27.338869 73.605 -111.5533
27.536977 73.540 -117.0491
27.736522 73.336 -121.5728
27.937512 73.036 -125.1207
28.139959 72.705 -127.0850
28.343872 72.471 -127.6740
28.549264 72.427 -126.8728
28.756143 72.666 -125.9082
28.964522 73.148 -125.5240
29.174411 73.789 -126.4961
29.385821 74.445 -129.0471
29.598763 75.036 -132.8867
29.813248 75.488 -137.7753
30.029287 75.776 -143.1046
30.246891 75.887 -148.7811
30.466073 75.824 -154.1562
30.686842 75.607 -159.0280
30.909212 75.261 -163.1053
31.133193 74.847 -165.9938
31.358797 74.432 -167.7358
31.586035 74.087 -168.2594
31.814921 73.878 -168.1378
32.045465 73.810 -167.8242
32.277680 73.858 -167.7307
32.511577 73.953 -168.1411
32.747169 74.049 -168.8466
32.984469 74.124 -169.6717
33.223488 74.183 -170.2764
33.464239 74.272 -170.4847
33.706735 74.434 -170.3808
33.950987 74.709 -170.1417
34.197010 75.102 -170.2601
34.444816 75.578 -171.0719
34.694417 76.091 -172.7048
34.945827 76.589 -175.1942
35.199059 77.032 -178.3690
35.454126 77.403 177.9989
35.711041 77.696 174.0832
35.969818 77.914 170.0529
36.230470 78.068 166.0739
36.493011 78.172 162.2149
36.757455 78.238 158.5139
37.023814 78.278 154.9925
37.292104 78.303 151.6540
37.562338 78.322 148.4838
37.834530 78.343 145.4591
38.108695 78.372 142.5505
38.384846 78.415 139.7190
38.662999 78.478 136.9125
38.943167 78.562 134.0643
39.225365 78.667 131.1147
39.509608 78.790 128.0135
39.795911 78.928 124.7193
40.084289 79.078 121.1963
40.374756 79.240 117.4086
40.667328 79.413 113.3055
40.962020 79.597 108.8126
41.258848 79.787 103.8363
41.557827 79.974 98.2765
41.858972 80.144 92.0433
42.162299 80.278 85.0721
42.467824 80.357 77.3343
42.775564 80.358 68.8411
43.085533 80.267 59.6409
43.397749 80.072 49.8112
43.712227 79.769 39.4475
44.028983 79.364 28.6362
44.348036 78.869 17.4423
44.669400 78.302 5.9097
44.993093 77.688 -5.9279
45.319131 77.051 -18.0240
45.647532 76.415 -30.2798
45.978313 75.803 -42.5070
46.311491 75.240 -54.4158
46.647083 74.758 -65.6533
46.985107 74.400 -75.9047
47.325581 74.211 -85.0244
47.668521 74.211 -93.1063
48.013947 74.379 -100.3947
48.361876 74.660 -107.0627
48.712326 74.996 -113.0378
49.065315 75.375 -118.0309
49.420863 75.845 -121.7850
49.778987 76.486 -124.4203
50.139706 77.347 -126.5759
50.503039 78.395 -129.0641
50.869005 79.553 -132.3567
51.237623 80.756 -136.4580
51.608912 81.991 -141.2157
51.982891 83.266 -146.6803
52.359580 84.572 -153.1956
52.739000 85.852 -161.1716
53.121168 87.021 -170.7908
53.506106 87.994 178.0959
53.893833 88.706 165.8519
54.284370 89.117 152.9573
54.677737 89.210 139.9712
55.073955 88.992 127.4856
55.473043 88.495 116.0837
55.875024 87.785 106.2506
56.279917 86.954 98.2361
56.687745 86.102 91.9277
57.098527 85.301 86.8270
57.512287 84.556 82.4097
57.929045 83.836 78.5249
58.348822 83.127 75.3849
58.771642 82.462 73.2128
59.197525 81.904 71.8557
59.626495 81.490 70.7830
60.058573 81.200 69.4768
60.493782 80.982 67.7249
60.932145 80.793 65.6057
61.373685 80.614 63.2461
61.818424 80.439 60.7141
62.266386 80.267 58.0262
62.717593 80.097 55.1700
63.172071 79.925 52.1041
63.629842 79.743 48.7935
64.090930 79.540 45.2845
64.555359 79.315 41.7333
65.023154 79.097 38.2596
65.494339 78.925 34.7362
65.968938 78.824 30.6989
66.446976 78.765 25.6335
66.928478 78.684 19.2704
67.413469 78.514 11.6718
67.901975 78.222 3.0426
68.394021 77.805 -6.4512
68.889632 77.283 -16.9227
69.388835 76.681 -28.6854
69.891655 76.017 -42.2581
70.398118 75.315 -58.1616
70.908252 74.617 -77.0001
71.422083 73.998 -99.1184
71.939636 73.526 -124.5542
72.460941 73.208 -152.3258
72.986023 72.952 178.7504
73.514909 72.606 149.6837
74.047629 72.054 120.2095
74.584208 71.316 88.7073
75.124676 70.708 52.3235
75.669061 70.869 9.5048
76.217390 72.199 -31.2755
76.769692 74.276 -62.3588
77.325997 76.501 -85.7749
77.886333 78.566 -104.9789
78.450730 80.381 -121.9031
79.019216 81.930 -137.5315
79.591822 83.214 -152.3713
80.168577 84.231 -166.6671
80.749512 84.980 179.5583
81.334656 85.480 166.4565
81.924040 85.761 154.1042
82.517696 85.840 142.3616
83.115653 85.694 131.0312
83.717943 85.257 120.2120
84.324598 84.459 110.7134
84.935649 83.293 104.2827
85.551128 81.963 103.7037
86.171066 81.052 110.9457
86.795497 81.209 121.4951
87.424453 82.290 127.7106
88.057967 83.694 128.6528
88.696071 85.104 126.3351
89.338800 86.441 121.8793
89.986185 87.675 115.6011
90.638262 88.779 107.6406
91.295065 89.722 98.0867
91.956626 90.459 86.9255
92.622982 90.918 74.2162
93.294166 91.020 60.3615
93.970214 90.706 46.1730
94.651161 89.966 32.6846
95.337042 88.845 20.8496
96.027894 87.425 11.2810
96.723752 85.790 4.2812
97.424652 84.022 0.2042
98.130631 82.241 -0.3936
98.841726 80.650 2.6781
99.557974 79.513 8.1819
100.279412 78.954 13.3011
101.006078 78.811 15.8422
101.738010 78.805 15.7885
102.475245 78.755 14.0934
103.217823 78.592 11.4730
103.965782 78.291 8.4382
104.719161 77.864 5.6223
105.477999 77.390 3.7722
106.242336 77.025 3.0568
107.012212 76.903 2.0364
107.787666 76.968 -1.4082
108.568740 77.017 -8.0312
109.355474 76.877 -17.3033
110.147909 76.473 -28.5394
110.946086 75.820 -41.3352
111.750047 75.020 -55.7723
112.559834 74.259 -72.6147
113.375489 73.766 -92.8633
114.197055 73.696 -116.4692
115.024574 74.009 -141.3105
115.858089 74.515 -164.3022
116.697645 75.053 176.5183
117.543284 75.557 161.5610
118.395051 76.004 150.1406
119.252990 76.378 141.5391
120.117147 76.712 135.6506
120.987565 77.126 132.4531
121.864291 77.748 131.0718
122.747370 78.596 129.8562
123.636848 79.567 127.4404
124.532771 80.528 123.5718
125.435187 81.389 118.4717
126.344142 82.084 112.4199
127.259684 82.588 106.0933
128.181860 82.929 100.1003
129.110718 83.146 94.5769
130.046308 83.281 89.7700
130.988677 83.404 85.8396
131.937875 83.565 82.2573
132.893951 83.749 78.3494
133.856956 83.881 73.6902
134.826938 83.859 68.3535
135.803950 83.627 63.4849
136.788041 83.262 60.4565
137.779264 82.918 59.3293
138.777669 82.703 59.1433
139.783309 82.623 58.9409
140.796237 82.624 58.4292
141.816504 82.687 58.1421
142.844165 82.828 57.8904
143.879273 83.004 56.8411
144.921881 83.142 55.3677
145.972045 83.287 54.8933
147.029819 83.595 55.7756
148.095257 84.120 55.9290
149.168417 84.730 53.9932
150.249353 85.336 51.0811
151.338121 85.973 47.8293
152.434780 86.647 43.2634
153.539385 87.245 36.3884
154.651995 87.617 27.3440
155.772667 87.663 17.0076
156.901460 87.343 6.3730
158.038432 86.663 -3.7527
159.183644 85.635 -13.0327
160.337154 84.234 -21.2078
161.499023 82.399 -26.9829
162.669312 80.169 -26.8562
163.848081 78.030 -13.9990
165.035392 77.221 11.4514
166.231306 78.064 25.6211
167.435887 79.269 26.4065
168.649196 80.129 22.8975
169.871298 80.692 20.0596
171.102255 81.224 18.4883
172.342133 81.763 14.9265
173.590995 82.125 8.7031
174.848907 82.259 2.0623
176.115934 82.197 -5.7124
177.392143 81.779 -15.9983
178.677599 80.808 -27.1062
179.972371 79.214 -37.4927
181.276525 76.990 -47.0459
182.590129 74.498 -54.3428
183.913252 73.838 62.1392
185.245964 76.252 86.5249
186.588332 79.120 75.3909
187.940428 81.296 61.8318
189.302322 82.702 47.3906
190.674085 83.429 33.2883
192.055788 83.618 20.7212
193.447503 83.423 10.0850
194.849303 82.948 0.8591
196.261262 82.231 -7.0112
197.683452 81.348 -12.6306
199.115948 80.450 -16.5320
200.558824 79.551 -22.0073
202.012156 78.360 -31.1484
203.476019 76.559 -41.6174
204.950490 74.552 -37.5325
206.435646 74.266 52.2776
207.931564 75.749 54.5879
209.438322 77.034 44.3950
210.955998 77.720 37.6392
212.484672 78.124 35.2114
214.024424 78.448 33.8245
215.575333 78.836 34.5376
217.137481 79.673 39.8560
218.710948 81.039 43.6021
220.295818 82.432 40.1548
221.892172 83.388 31.4429
223.500094 83.772 21.5164
225.119668 83.715 13.6917
226.750978 83.485 8.9919
228.394109 83.274 5.5610
230.049147 83.061 1.7166
231.716178 82.741 -2.2742
233.395289 82.234 -6.0159
235.086567 81.511 -8.2039
236.790102 80.779 -5.6863
238.505980 80.688 4.2075
240.234293 81.809 17.3799
241.975130 83.609 21.5356
243.728581 85.176 15.1028
245.494739 86.107 3.9033
247.273695 86.412 -7.3000
249.065542 86.303 -16.0977
250.870374 86.079 -21.7324
252.688284 86.022 -25.4458
254.519367 86.175 -30.5022
256.363720 86.304 -38.6729
258.221437 86.144 -49.2476
260.092616 85.532 -60.8123
261.977354 84.389 -71.7542
263.875750 82.687 -80.4824
265.787903 80.444 -84.2107
267.713911 77.948 -75.5769
269.653877 76.317 -50.8499
271.607900 76.767 -28.0725
273.576083 78.533 -18.1023
275.558528 80.407 -18.3469
277.555338 81.991 -23.5320
279.566619 83.215 -31.7913
281.592474 83.989 -43.0991
283.633009 84.209 -56.3184
285.688331 83.826 -69.5793
287.758546 82.873 -80.6199
289.843763 81.497 -87.3855
291.944090 79.960 -88.7910
294.059638 78.610 -85.9250
296.190515 77.838 -79.8293
298.336833 78.090 -69.7219
300.498705 79.311 -63.7781
302.676243 80.757 -67.3796
304.869559 81.856 -77.4275
307.078770 82.339 -91.4309
309.303989 82.093 -106.2056
311.545334 81.255 -117.0547
313.802919 80.376 -120.0696
316.076865 80.169 -120.1870
318.367288 80.637 -125.3435
320.674309 81.300 -135.3728
322.998047 81.865 -148.9492
325.338624 82.135 -166.3594
327.696162 81.856 172.5811
330.070783 80.782 150.1836
332.462612 78.785 131.3208
334.871773 76.020 124.8450
337.298392 73.295 132.7737
339.742595 72.023 135.5916
342.204510 73.320 158.8201
344.684265 76.334 -164.3828
347.181989 78.981 -177.9365
349.697813 80.535 159.1516
352.231868 81.238 139.5154
354.784285 81.746 127.0015
357.355198 82.470 116.7395
359.944741 83.180 103.8005
362.553049 83.578 89.6211
365.180258 83.681 77.1604
367.826505 83.722 67.2104
370.491927 83.899 58.3125
373.176665 84.177 47.9358
375.880856 84.296 34.6133
378.604644 83.951 18.8984
381.348169 82.915 3.1592
384.111575 81.131 -7.9338
386.895006 78.970 -5.3550
389.698607 77.591 10.3118
392.522524 77.647 16.5559
395.366904 78.277 14.2400
398.231895 78.923 10.0288
401.117648 79.619 5.8403
404.024312 80.263 -2.4207
406.952038 80.446 -16.1858
409.900981 80.048 -29.5112
412.871292 79.362 -41.3740
415.863128 78.458 -57.0842
418.876643 76.981 -77.4363
421.911996 74.613 -99.9526
424.969344 71.441 -126.0305
428.048847 68.450 60.3523
431.150666 67.124 16.5627
434.274961 67.145 -12.1589
437.421897 68.843 -51.9871
440.591636 72.121 123.8933
443.784345 74.977 95.4912
447.000189 76.541 66.6050
450.239337 76.874 42.7148
453.501956 76.714 30.5229
456.788219 76.790 20.8113
460.098294 76.736 4.3867
463.432356 76.184 -12.6228
466.790578 75.310 -31.3618
470.173135 74.098 -57.8975
473.580203 72.571 -95.4741
477.011961 71.820 -145.4177
480.468586 73.326 175.6431
483.950259 75.824 149.6177
487.457163 77.806 125.7126
490.989478 79.195 106.5396
494.547390 80.307 91.7974
498.131084 81.093 76.5864
501.740748 81.189 59.0862
505.376568 80.389 44.3555
509.038735 79.086 40.6716
512.727439 78.531 51.7039
516.442874 79.494 60.8440
520.185232 80.851 55.8367
523.954708 81.543 42.6721
527.751500 81.276 28.4980
531.575805 80.192 18.8762
535.427822 79.121 24.2920
539.307753 79.636 49.5071
543.215800 81.199 51.6919
547.152165 82.110 38.1616
551.117055 82.003 25.3328
555.110677 81.591 24.3530
559.133237 82.167 35.9456
563.184947 83.639 35.6257
567.266018 84.987 25.5938
571.376661 85.688 10.3501
575.517092 85.372 -7.3403
579.687526 84.135 -17.3628
583.888181 82.767 -17.9397
588.119275 81.825 -20.1936
592.381030 81.114 -23.0378
596.673667 80.502 -25.1689
600.997410 79.867 -29.0586
605.352485 79.472 -25.9004
609.739119 79.895 -20.0159
614.157540 80.375 -29.7820
618.607979 79.890 -45.8096
623.090667 78.391 -56.5293
627.605839 76.444 -59.3088
632.153730 74.898 -57.1643
636.734576 74.745 -40.9900
641.348617 75.318 -51.4934
645.996094 74.850 -83.9722
650.677248 73.609 -123.5925
655.392323 74.385 -167.9751
660.141566 77.263 152.9463
664.925224 79.615 117.7981
669.743546 80.637 86.5793
674.596784 80.493 65.3560
679.485191 80.108 60.1794
684.409020 80.100 54.8049
689.368530 80.181 49.9937
694.363979 81.079 60.2244
699.395626 82.982 65.0332
704.463736 84.658 55.2778
709.568570 85.496 40.7808
714.710396 85.642 28.6448
719.889483 85.482 20.5388
725.106099 85.214 13.2261
730.360516 84.703 5.5930
735.653010 83.945 1.0928
740.983855 83.569 9.8989
746.353329 84.260 19.2466
751.761713 85.239 14.5100
757.209288 86.025 8.9641
762.696339 86.630 1.7859
768.223151 86.759 -8.8030
773.790013 86.395 -17.1262
779.397214 85.751 -24.2395
785.045047 85.059 -24.8330
790.733808 85.087 -13.7717
796.463791 85.686 -16.4949
802.235296 85.895 -26.1116
808.048623 85.527 -35.2935
813.904077 84.845 -38.2312
819.801961 85.000 -24.3206
825.742584 86.314 -20.6660
831.726255 87.408 -32.6594
837.753287 87.643 -47.6890
843.823992 87.204 -60.9053
849.938689 86.305 -72.0051
856.097695 85.209 -80.0413
862.301332 84.022 -91.2573
868.549922 82.256 -105.6355
874.843793 79.737 -93.3328
881.183272 78.174 -42.4031
887.568689 78.548 -39.8201
894.000378 79.359 -40.5205
900.478673 80.010 -43.8298
907.003913 80.374 -49.0537
913.576437 81.486 -42.3188
920.196588 83.353 -41.6653
926.864712 84.297 -63.1626
933.581156 83.395 -91.1692
940.346270 80.904 -106.6985
947.160407 78.648 -31.1709
954.023921 78.498 -22.6128
960.937172 78.973 -34.6104
967.900519 80.114 -17.2849
974.914325 82.378 -5.3574
981.978956 84.356 -17.6931
989.094780 85.216 -35.9268
996.262169 85.131 -48.3906
1003.481495 84.764 -57.6006
1010.753136 84.344 -63.4373
1018.077470 84.940 -52.7275
1025.454879 86.533 -54.5127
1032.885748 87.485 -73.8276
1040.370463 87.095 -96.5283
1047.909417 85.408 -111.6553
1055.503000 83.170 -107.9058
1063.151610 81.737 -102.0105
1070.855645 81.240 -105.2183
1078.615506 80.964 -109.2979
1086.431599 81.157 -99.7764
1094.304330 81.914 -102.6404
1102.234110 81.823 -122.2512
1110.221353 80.238 -133.7419
1118.266475 78.156 -119.1772
1126.369895 77.710 -100.7976
1134.532035 78.836 -99.1882
1142.753322 79.546 -113.3523
1151.034184 79.380 -126.0376
1159.375052 79.335 -130.3391
1167.776361 80.041 -138.7734
1176.238550 80.724 -160.4016
1184.762060 80.762 166.5869
1193.347334 80.394 125.7229
1201.994821 79.483 135.7749
1210.704971 77.773 148.2424
1219.478238 76.530 100.6135
1228.315080 78.183 65.1541
1237.215957 80.589 26.3672
1246.181334 82.162 -10.2705
1255.211678 83.124 -41.6587
1264.307459 83.481 -72.2754
1273.469152 82.796 -103.2515
1282.697235 81.282 -126.9175
1291.992188 80.688 -142.4351
1301.354495 81.626 175.9946
1310.784647 82.124 84.4893
1320.283132 81.456 1.2720
1329.850448 79.958 -41.6650
1339.487093 78.776 -57.0386
1349.193569 79.334 -59.6382
1358.970381 80.929 -68.1846
1368.818041 82.221 -87.9795
1378.737061 83.045 -111.7710
1388.727958 83.555 -140.9839
1398.791253 83.745 -178.7988
1408.927471 83.572 126.9653
1419.137140 82.903 48.7324
1429.420793 82.163 -20.9180
1439.778965 82.375 -64.6626
1450.212197 82.833 -105.4175
1460.721033 81.975 -147.6099
1471.306019 79.494 177.1177
1481.967709 76.411 156.5596
1492.706658 74.738 -168.8413
1503.523426 74.849 -113.7168
1514.418576 76.240 -157.9453
1525.392678 79.232 144.8037
1536.446302 82.360 84.7148
1547.580025 84.519 33.1113
1558.794428 85.619 -10.5103
1570.090095 85.700 -46.9028
1581.467615 85.115 -75.3081
1592.927581 84.404 -98.2456
1604.470591 83.509 -122.3115
1616.097246 81.933 -140.5000
1627.808153 80.656 -115.5708
1639.603922 80.757 -110.2759
1651.485168 80.818 -132.6450
1663.452510 80.242 -150.5522
1675.506573 79.658 -159.7305
1687.647984 79.370 -172.7319
1699.877377 79.618 -173.3384
1712.195390 80.249 169.3770
1724.602663 80.182 121.8496
1737.099845 79.807 57.4551
1749.687587 81.214 -5.9229
1762.366544 83.364 -59.5273
1775.137379 84.233 -112.9990
1788.000756 83.381 -163.8320
1800.957346 81.147 159.4009
1814.007826 79.614 -64.5781
1827.152874 79.998 -98.0854
1840.393177 80.142 -134.5718
1853.729425 79.010 -166.4897
1867.162312 78.002 176.8320
1880.692540 79.073 -66.6206
1894.320813 80.626 -92.0449
1908.047843 81.745 -113.9966
1921.874344 82.545 -136.1221
1935.801038 82.500 -161.1934
1949.828650 81.304 179.6650
1963.957912 79.789 179.5337
1978.189561 79.425 178.7422
1992.524338 79.839 171.1880
2006.962991 80.067 156.5430
2021.506272 80.132 158.7729
2036.154940 80.156 157.9624
2050.909758 79.573 140.1641
2065.771495 79.011 163.9819
2080.740927 79.401 -143.2217
2095.818833 79.796 -161.4580
2111.006001 79.779 162.7520
2126.303220 81.131 -51.5444
2141.711290 83.525 -88.6167
2157.231013 84.880 -125.8506
2172.863198 85.067 -153.1963
2188.608660 85.269 -168.4673
2204.468221 85.622 174.0020
2220.442706 85.210 155.4497
2236.532950 84.526 147.5083
2252.739789 84.285 141.3062
2269.064070 84.319 134.4927
2285.506644 84.432 141.3389
2302.068367 84.415 145.0332
2318.750104 83.942 126.8848
2335.552723 82.515 108.6865
2352.477101 80.207 107.9092
2369.524119 78.402 125.4604
2386.694668 78.604 140.1592
2403.989641 80.610 148.6118
2421.409941 82.950 145.1973
2438.956476 84.297 128.6807
2456.630160 84.438 106.7920
2474.431915 84.100 102.2642
2492.362668 84.792 159.0073
2510.423356 85.805 139.8096
2528.614918 85.849 116.9331
2546.938304 85.306 101.8721
2565.394469 84.584 88.1353
2583.984375 83.485 75.7075
2602.708991 82.142 73.0894
2621.569293 81.237 84.2090
2640.566265 80.809 81.4526
2659.700897 80.105 72.9360
2678.974186 79.335 78.4517
2698.387137 79.171 83.2134
2717.940763 80.666 133.0513
2737.636082 82.728 128.4995
2757.474121 83.990 106.8467
2777.455915 84.178 82.6987
2797.582506 83.323 73.1543
2817.854942 83.532 109.6196
2838.274281 84.692 101.1040
2858.841586 84.602 75.4717
2879.557931 83.248 60.9019
2900.424394 81.790 63.2661
2921.442065 81.015 74.2856
2942.612039 81.256 94.7329
2963.935418 81.677 82.5312
2985.413316 81.327 62.4956
3007.046852 80.170 59.4312
3028.837153 80.089 112.5586
3050.785356 81.658 111.0298
3072.892604 82.743 95.6777
3095.160050 82.836 85.9097
3117.588856 82.748 78.8901
3140.180190 82.880 73.0513
3162.935230 83.180 69.1631
3185.855163 82.934 59.2358
3208.941182 82.001 53.5479
3232.194493 80.836 51.4395
3255.616307 79.889 51.9453
3279.207844 79.626 59.1768
3302.970336 79.942 68.9937
3326.905021 80.395 71.5713
3351.013146 80.892 66.3657
3375.295969 81.034 56.3574
3399.754755 80.513 49.7529
3424.390779 80.081 50.1533
3449.205326 79.997 46.0425
3474.199690 79.764 42.7695
3499.375173 79.450 37.7915
3524.733088 78.581 27.6821
3550.274757 77.112 31.5386
3576.001511 76.433 55.7349
3601.914692 76.996 70.8174
3628.015651 77.828 77.5942
3654.305748 78.857 78.8936
3680.786354 79.671 69.1182
3707.458849 79.449 54.5039
3734.324624 78.480 50.4062
3761.385080 78.224 61.8276
3788.641627 78.875 68.4282
3816.095686 79.535 64.5469
3843.748688 79.859 60.5664
3871.602076 80.341 84.1807
3899.657300 81.047 81.1479
3927.915825 81.396 69.8564
3956.379122 81.488 63.1924
3985.048676 81.409 58.4692
4013.925981 80.982 54.4263
4043.012544 80.314 50.6841
4072.309879 79.664 50.8428
4101.819515 79.483 51.6377
4131.542990 79.652 47.4282
4161.481854 80.060 45.4307
4191.637667 81.084 62.1982
4222.012001 82.517 63.3652
4252.606441 83.067 44.7139
4283.422580 82.193 24.5664
4314.462026 80.302 24.3730
4345.726396 78.841 36.2754
4377.217321 78.167 30.6411
4408.936442 77.556 27.4561
4440.885413 77.049 35.8770
4473.065899 77.160 49.2065
4505.479579 77.405 41.2935
4538.128141 76.982 31.6963
4571.013288 76.510 36.6079
4604.136735 76.949 48.2705
4637.500207 77.242 37.2817
4671.105446 76.391 27.3940
4704.954201 75.115 35.4355
4739.048239 74.798 54.7104
4773.389336 76.033 73.6084
4807.979283 76.909 61.0518
4842.819883 76.660 51.5107
4877.912952 76.422 54.8320
4913.260320 76.310 48.7295
4948.863830 75.624 44.4985
4984.725337 75.232 55.2769
5020.846712 76.275 79.6509
5057.229836 78.025 78.9951
5093.876609 78.931 60.8613
5130.788938 78.623 49.4502
5167.968750 78.344 59.0283
5205.417982 78.557 48.6299
5243.138586 78.136 31.9126
5281.132530 77.193 54.7070
5319.401793 76.735 71.8452
5357.948371 76.446 70.1392
5396.774274 76.871 80.9165
5435.881525 77.576 74.4058
5475.272163 77.530 64.5708
5514.948243 77.195 63.2944
5554.911831 77.991 81.1992
5595.165012 79.833 98.4351
5635.709884 80.820 85.3472
5676.548561 80.831 76.1035
5717.683172 81.004 71.2319
5759.115861 80.885 60.2725
5800.848789 80.088 57.7222
5842.884130 79.847 66.4321
5885.224077 80.494 67.3413
5927.870837 81.062 60.7803
5970.826633 81.463 56.8936
6014.093704 81.712 50.3369
6057.674306 81.411 41.9927
6101.570711 80.734 38.0659
6145.785208 80.266 39.8013
6190.320101 80.311 41.7319
6235.177712 80.416 41.4160
6280.360380 80.548 43.5918
6325.870460 80.740 39.2891
6371.710325 80.466 32.4478
6417.882365 80.132 38.2695
6464.388986 80.356 40.4644
6511.232613 80.504 36.6167
6558.415689 80.798 37.2129
6605.940673 81.115 31.1909
6653.810042 81.075 23.8047
6702.026292 80.778 17.7261
6750.591937 80.483 15.2002
6799.509509 80.236 15.9482
6848.781558 80.110 20.2764
6898.410653 80.187 16.0410
6948.399380 79.760 4.4189
6998.750346 79.209 14.7661
7049.466176 78.944 21.9321
7100.549514 78.591 25.5776
7152.003023 78.262 23.1094
7203.829385 77.851 20.4087
7256.031302 77.843 23.0444
7308.611496 78.004 36.9336
7361.572708 78.718 49.2358
7414.917698 80.212 51.6514
7468.649249 81.503 41.3452
7522.770160 81.596 30.5171
7577.283253 81.403 39.6650
7632.191371 81.460 38.4688
7687.497376 81.661 39.0527
7743.204151 81.526 25.9331
7799.314600 80.545 16.9414
7855.831649 79.833 22.1396
7912.758244 80.094 33.6333
7970.097352 80.881 31.7627
8027.851962 81.314 18.5068
8086.025087 81.114 14.3867
8144.619758 80.912 32.3970
8203.639030 81.036 31.6274
8263.085980 81.417 28.2563
8322.963708 81.432 16.9351
8383.275334 80.871 14.2295
8444.024002 81.026 19.9844
8505.212881 81.803 21.5176
8566.845160 82.012 12.0029
8628.924051 81.538 2.6553
8691.452792 80.917 -1.5093
8754.434642 80.714 -0.4712
8817.872884 80.923 7.6187
8881.770826 81.091 4.3696
8946.131799 80.779 -1.4180
9010.959157 80.453 -0.7661
9076.256282 80.269 2.8872
9142.026576 80.163 -1.6934
9208.273470 79.757 -10.1108
9275.000415 78.904 -15.1646
9342.210891 78.018 -14.2495
9409.908403 77.721 -5.4941
9478.096478 77.534 -11.0195
9546.778672 76.942 -13.2197
9615.958566 76.746 4.6343
9685.639765 77.203 14.5308
9755.825904 77.356 4.9668
9826.520640 76.888 -0.7388
9897.727659 76.864 15.1372
9969.450674 78.071 26.9526
10041.693423 78.698 17.1016
10114.459673 78.686 23.4072
10187.753217 79.489 35.3843
10261.577877 80.274 26.1313
10335.937500 80.002 13.0796
10410.835964 79.488 13.7432
10486.277173 79.853 20.6074
10562.265060 80.359 11.6797
10638.803587 79.901 1.7969
10715.896743 79.167 3.2100
10793.548548 79.073 4.6416
10871.763050 78.991 -1.9927
10950.544327 78.571 -5.4224
11029.896485 78.407 -0.3145
11109.823662 78.694 1.6460
11190.330024 78.770 -4.8545
11271.419768 78.488 -8.4971
11353.097122 78.186 -8.4141
11435.366344 77.859 -10.5923
11518.231722 77.391 -14.9878
11601.697577 77.096 -12.4194
11685.768261 77.250 -9.4131
11770.448155 77.087 -15.9619
11855.741674 76.495 -17.4766
11941.653265 76.087 -11.8320
12028.187408 75.759 -16.0483
12115.348612 75.094 -19.9790
12203.141422 74.496 -8.5083
12291.570415 74.155 -1.1421
12380.640201 73.976 4.3120
12470.355424 74.393 12.8979
12560.720760 75.087 10.7354
12651.740920 75.392 8.3281
12743.420650 75.610 17.2490
12835.764729 76.007 22.9053
12928.777972 76.722 24.3525
13022.465227 77.782 24.5361
13116.831378 78.866 22.3979
13211.881345 79.593 15.7163
13307.620084 79.947 10.9297
13404.052584 80.349 6.1113
13501.183875 80.624 -2.5728
13599.019019 80.491 -10.7222
13697.563116 80.130 -16.6484
13796.821305 79.464 -24.3516
13896.798760 78.237 -27.3335
13997.500692 77.184 -22.0205
14098.932352 76.776 -19.6362
14201.099028 76.822 -16.3091
14304.006046 77.228 -16.7959
14407.658770 77.504 -20.5552
14512.062604 77.685 -21.5850
14617.222992 77.829 -26.4741
14723.145416 77.670 -31.9287
14829.835397 77.345 -35.0776
14937.298497 77.017 -39.7578
15045.540320 76.610 -44.2441
15154.566507 76.243 -47.9668
15264.382743 75.766 -54.1846
15374.994752 75.107 -58.4634
15486.408302 74.500 -63.8853
15598.629201 73.471 -73.6665
15711.663298 71.864 -79.2563
15825.516487 70.099 -82.7495
15940.194703 68.268 -76.4326
16055.703925 67.216 -57.3779
16172.050174 66.949 -43.6533
16289.239516 67.361 -26.6089
16407.278061 67.908 -25.0098
16526.171961 68.115 -9.6484
16645.927415 68.315 2.9448
16766.550667 69.116 13.7979
16888.048005 70.257 8.6724
17010.425762 70.959 1.7192
17133.690320 71.371 -3.9009
17257.848103 71.272 -11.7124
17382.905584 70.880 -13.8901
17508.869284 70.570 -16.4302
17635.745768 70.461 -16.2373
17763.541652 70.628 -16.2393
17892.263597 70.703 -14.4751
18021.918315 70.830 -13.8892
18152.512564 71.154 -15.9849
18284.053153 71.415 -18.7456
18416.546939 71.190 -21.6934
18550.000830 70.774 -24.6802
18684.421783 70.331 -30.1265
18819.816805 69.850 -33.8770
18956.192956 69.390 -37.5361
19093.557344 68.764 -41.0879
19231.917131 67.756 -44.3623
19371.279531 66.583 -45.2256
19511.651807 65.747 -45.7153
19653.041280 64.976 -49.8384
19795.455318 63.698 -55.8228
19938.901348 62.189 -60.8569
