* Measurement data measured by REW V5.31.1
* Source: Scarlett 2i4 USB, MICROPHONE, R, volume: no control
* Format: 512k Log Swept Sine, 1 sweep at -18.0 dBFS with no timing reference
* Dated: May 16, 2024 7:38:58 AM
* REW Settings:
*  C-weighting compensation: Off
*  Target level: 75.0 dB
* Note: ; 
* Measurement: bns-back12-side2-p1-l
* Smoothing: 1/48 octave
* Frequency Step: 96 ppo
* Start Frequency: 10.093689 Hz
*
* Freq(Hz) SPL(dB) Phase(degrees)
10.093689 44.632 7.1944
10.166832 44.540 5.6613
10.240505 44.427 4.1855
10.314712 44.309 3.1117
10.389457 44.181 2.8588
10.464743 44.004 3.8407
10.540575 43.725 5.9062
10.616956 43.433 9.1387
10.693891 43.275 13.5900
10.771383 43.394 18.9814
10.849437 43.844 25.2874
10.928057 44.554 31.8538
11.007246 45.428 37.4286
11.087009 46.390 41.1777
11.167350 47.433 43.2915
11.248273 48.587 44.5853
11.329783 49.771 44.8829
11.411883 50.893 44.1217
11.494578 51.902 42.3979
11.577873 52.832 40.1938
11.661771 53.694 37.6548
11.746277 54.487 34.8033
11.831395 55.209 31.5641
11.917130 55.857 27.9635
12.003487 56.438 24.2312
12.090469 56.957 20.4863
12.178081 57.416 16.6136
12.266329 57.813 12.4377
12.355216 58.148 8.2193
12.444747 58.426 4.1545
12.534926 58.646 0.0403
12.625760 58.806 -4.2945
12.717251 58.908 -8.5703
12.809406 58.950 -12.5528
12.902228 58.932 -16.5908
12.995723 58.853 -20.6862
13.089895 58.712 -24.5567
13.184750 58.508 -28.0330
13.280292 58.238 -31.4378
13.376526 57.908 -34.6360
13.473458 57.521 -37.3345
13.571093 57.066 -39.4670
13.669434 56.560 -41.1008
13.768489 56.043 -42.1356
13.868261 55.527 -42.3083
13.968756 55.009 -41.3968
14.069979 54.568 -39.6764
14.171936 54.292 -37.5150
14.274632 54.187 -34.5563
14.378072 54.231 -31.4087
14.482261 54.419 -28.9799
14.587206 54.770 -27.2597
14.692910 55.229 -26.2324
14.799381 55.701 -26.1633
14.906624 56.148 -27.1197
15.014643 56.578 -28.8099
15.123446 56.951 -30.9854
15.233036 57.243 -33.7118
15.343421 57.460 -37.0135
15.454606 57.595 -40.4568
15.566596 57.640 -44.0204
15.679398 57.595 -47.9792
15.793018 57.455 -51.8687
15.907460 57.217 -55.5692
16.022732 56.879 -59.4145
16.138840 56.431 -62.9617
16.255788 55.869 -65.9924
16.373585 55.192 -68.7014
16.492234 54.403 -70.6749
16.611744 53.479 -71.4538
16.732119 52.478 -70.8620
16.853367 51.521 -68.6090
16.975494 50.616 -63.7646
17.098505 49.930 -56.5708
17.222408 49.724 -48.5174
17.347209 50.013 -40.2740
17.472914 50.590 -33.7897
17.599530 51.326 -29.8477
17.727063 52.177 -27.8517
17.855521 52.963 -27.3814
17.984909 53.631 -28.2580
18.115235 54.192 -29.9138
18.246506 54.634 -31.9454
18.378727 54.958 -34.5146
18.511907 55.178 -37.0924
18.646052 55.296 -39.7013
18.781169 55.322 -42.3135
18.917265 55.266 -44.5468
19.054347 55.131 -46.5798
19.192423 54.938 -48.1465
19.331499 54.693 -49.1302
19.471583 54.421 -49.5223
19.612682 54.158 -49.1415
19.754804 53.922 -47.9445
19.897956 53.779 -46.1031
20.042144 53.752 -43.5454
20.187378 53.870 -40.7840
20.333664 54.162 -38.0830
20.481010 54.597 -35.7574
20.629424 55.135 -34.2903
20.778913 55.754 -33.5469
20.929486 56.384 -33.7609
21.081150 57.009 -34.7500
21.233912 57.591 -36.3551
21.387782 58.114 -38.5718
21.542767 58.566 -41.0442
21.698874 58.939 -43.7783
21.856113 59.237 -46.5157
22.014492 59.461 -49.0535
22.174018 59.629 -51.3633
22.334700 59.762 -53.0898
22.496546 59.889 -54.3405
22.659566 60.062 -54.9415
22.823766 60.305 -55.0307
22.989157 60.665 -54.9483
23.155745 61.142 -54.7844
23.323542 61.716 -55.1812
23.492554 62.361 -56.0321
23.662790 63.011 -57.7017
23.834261 63.640 -59.9519
24.006973 64.195 -62.6965
24.180938 64.666 -65.7654
24.356163 65.033 -68.7590
24.532658 65.305 -71.6080
24.710431 65.501 -73.7787
24.889493 65.666 -75.2923
25.069853 65.863 -75.7374
25.251519 66.167 -75.5094
25.434502 66.648 -74.6433
25.618811 67.312 -74.1792
25.804456 68.145 -74.2952
25.991445 69.046 -75.8217
26.179790 69.958 -78.5006
26.369500 70.789 -82.4706
26.560584 71.505 -87.3216
26.753053 72.067 -92.9280
26.946917 72.459 -98.8197
27.142185 72.668 -105.0181
27.338869 72.690 -110.8089
27.536977 72.526 -116.3079
27.736522 72.197 -120.6442
27.937512 71.753 -123.7708
28.139959 71.273 -124.9009
28.343872 70.930 -124.2818
28.549264 70.850 -121.9544
28.756143 71.145 -119.7060
28.964522 71.731 -118.5294
29.174411 72.472 -119.3282
29.385821 73.187 -122.0623
29.598763 73.788 -126.2905
29.813248 74.206 -131.5886
30.029287 74.424 -137.2338
30.246891 74.437 -143.1119
30.466073 74.260 -148.4225
30.686842 73.930 -152.9643
30.909212 73.495 -156.3222
31.133193 73.060 -158.2060
31.358797 72.724 -158.8890
31.586035 72.572 -158.6501
31.814921 72.625 -158.6461
32.045465 72.810 -159.3756
32.277680 73.038 -161.1585
32.511577 73.196 -163.8938
32.747169 73.229 -167.0167
32.984469 73.113 -170.1761
33.223488 72.860 -172.7147
33.464239 72.533 -174.1217
33.706735 72.222 -174.2317
33.950987 72.033 -173.0052
34.197010 72.062 -171.2130
34.444816 72.301 -169.7452
34.694417 72.686 -169.1906
34.945827 73.115 -169.8670
35.199059 73.496 -171.5802
35.454126 73.786 -173.9476
35.711041 73.964 -176.6606
35.969818 74.032 -179.4092
36.230470 74.006 178.0987
36.493011 73.906 176.0026
36.757455 73.754 174.4021
37.023814 73.575 173.3701
37.292104 73.391 172.9370
37.562338 73.229 173.0858
37.834530 73.112 173.7673
38.108695 73.061 174.8863
38.384846 73.094 176.2986
38.662999 73.217 177.8206
38.943167 73.425 179.2574
39.225365 73.701 -179.5305
39.509608 74.023 -178.5993
39.795911 74.372 -177.9041
40.084289 74.734 -177.3046
40.374756 75.118 -176.5904
40.667328 75.558 -175.5533
40.962020 76.112 -174.1771
41.258848 76.829 -172.7800
41.557827 77.719 -171.9477
41.858972 78.739 -172.2671
42.162299 79.809 -174.0642
42.467824 80.848 -177.3383
42.775564 81.793 178.1432
43.085533 82.610 172.7151
43.397749 83.288 166.7196
43.712227 83.835 160.4495
44.028983 84.266 154.1105
44.348036 84.601 147.8151
44.669400 84.855 141.6024
44.993093 85.037 135.4744
45.319131 85.149 129.4382
45.647532 85.187 123.5422
45.978313 85.152 117.8874
46.311491 85.054 112.6074
46.647083 84.914 107.8198
46.985107 84.763 103.5684
47.325581 84.631 99.7859
47.668521 84.539 96.3130
48.013947 84.488 92.9774
48.361876 84.471 89.6780
48.712326 84.481 86.4117
49.065315 84.522 83.2216
49.420863 84.608 80.1117
49.778987 84.759 76.9900
50.139706 84.986 73.6815
50.503039 85.286 69.9915
50.869005 85.650 65.7470
51.237623 86.066 60.7853
51.608912 86.517 54.9200
51.982891 86.973 47.9424
52.359580 87.390 39.6827
52.739000 87.710 30.0850
53.121168 87.873 19.2458
53.506106 87.826 7.4031
53.893833 87.526 -5.1370
54.284370 86.943 -17.9816
54.677737 86.064 -30.6482
55.073955 84.893 -42.6006
55.473043 83.466 -53.3103
55.875024 81.851 -62.4109
56.279917 80.152 -69.8827
56.687745 78.471 -76.3184
57.098527 76.851 -82.7604
57.512287 75.242 -90.1033
57.929045 73.543 -98.8151
58.348822 71.665 -109.3252
58.771642 69.580 -122.7771
59.197525 67.403 -142.2526
59.626495 65.631 -174.4399
60.058573 65.184 138.9606
60.493782 66.217 100.0574
60.932145 67.782 75.0346
61.373685 69.234 57.0970
61.818424 70.416 42.7301
62.266386 71.353 30.4226
62.717593 72.091 19.3105
63.172071 72.659 8.9740
63.629842 73.081 -0.6274
64.090930 73.403 -9.3458
64.555359 73.703 -17.0011
65.023154 74.074 -23.7222
65.494339 74.572 -29.9935
65.968938 75.187 -36.4317
66.446976 75.870 -43.3456
66.928478 76.572 -50.7072
67.413469 77.274 -58.3272
67.901975 77.980 -66.0591
68.394021 78.700 -73.8743
68.889632 79.437 -81.8176
69.388835 80.189 -89.9426
69.891655 80.952 -98.2833
70.398118 81.720 -106.9216
70.908252 82.474 -115.9891
71.422083 83.179 -125.6147
71.939636 83.783 -135.7893
72.460941 84.242 -146.2623
72.986023 84.537 -156.6543
73.514909 84.683 -166.4744
74.047629 84.733 -175.3822
74.584208 84.762 176.7444
75.124676 84.851 169.6384
75.669061 85.043 162.7043
76.217390 85.320 155.1268
76.769692 85.597 146.2960
77.325997 85.757 135.9810
77.886333 85.687 124.4209
78.450730 85.300 112.0708
79.019216 84.528 99.4495
79.591822 83.303 87.2150
80.168577 81.539 76.1855
80.749512 79.148 68.2178
81.334656 76.252 69.9850
81.924040 74.307 112.5989
82.517696 75.486 157.7693
83.115653 78.087 162.3645
83.717943 80.388 157.8932
84.324598 82.186 150.7019
84.935649 83.543 142.2017
85.551128 84.510 132.9796
86.171066 85.127 123.6685
86.795497 85.465 115.0906
87.424453 85.659 107.8793
88.057967 85.862 101.8066
88.696071 86.141 95.8181
89.338800 86.448 89.0514
89.986185 86.703 81.4424
90.638262 86.870 73.2350
91.295065 86.930 64.4287
91.956626 86.835 54.8789
92.622982 86.511 44.7196
93.294166 85.890 34.5536
93.970214 84.945 25.3807
94.651161 83.729 18.3875
95.337042 82.393 14.3962
96.027894 81.157 12.9410
96.723752 80.169 12.2478
97.424652 79.402 10.8840
98.130631 78.733 8.6570
98.841726 78.067 5.8878
99.557974 77.345 2.8198
100.279412 76.530 -0.1829
101.006078 75.625 -2.3645
101.738010 74.714 -3.1749
102.475245 73.913 -3.2952
103.217823 73.243 -3.9406
103.965782 72.646 -5.3679
104.719161 72.098 -7.4003
105.477999 71.627 -10.1406
106.242336 71.310 -13.9077
107.012212 71.243 -19.8744
107.787666 71.424 -29.6498
108.568740 71.782 -43.6678
109.355474 72.303 -61.2399
110.147909 72.998 -81.2267
110.946086 73.830 -101.9274
111.750047 74.758 -121.4470
112.559834 75.766 -138.7145
113.375489 76.826 -153.8130
114.197055 77.861 -167.5466
115.024574 78.754 179.3795
115.858089 79.405 166.9983
116.697645 79.799 156.0825
117.543284 80.029 147.4443
118.395051 80.221 140.9286
119.252990 80.434 135.7014
120.117147 80.680 131.5066
120.987565 81.012 128.4933
121.864291 81.498 126.1831
122.747370 82.147 123.6738
123.636848 82.899 120.1672
124.532771 83.652 115.2571
125.435187 84.315 109.0867
126.344142 84.832 102.1039
127.259684 85.195 94.8943
128.181860 85.440 87.9266
129.110718 85.610 81.0537
130.046308 85.699 73.8992
130.988677 85.680 66.4907
131.937875 85.537 58.9746
132.893951 85.268 51.4755
133.856956 84.882 44.0562
134.826938 84.369 36.3175
135.803950 83.655 27.8727
136.788041 82.629 19.0494
137.779264 81.183 10.6995
138.777669 79.236 4.0626
139.783309 76.756 1.2336
140.796237 74.084 10.2401
141.816504 72.974 63.7991
142.844165 74.578 94.7235
143.879273 76.725 94.5779
144.921881 78.349 89.3794
145.972045 79.512 84.5562
147.029819 80.423 80.5009
148.095257 81.153 75.9094
149.168417 81.646 70.2872
150.249353 81.857 64.4675
151.338121 81.858 60.1012
152.434780 81.864 58.1820
153.539385 82.043 56.8822
154.651995 82.258 53.1090
155.772667 82.222 47.3467
156.901460 81.823 42.2920
158.038432 81.160 40.0343
159.183644 80.525 42.4598
160.337154 80.333 48.5728
161.499023 80.707 53.3970
162.669312 81.393 55.1462
163.848081 82.139 54.4348
165.035392 82.771 51.4722
166.231306 83.194 47.3162
167.435887 83.403 43.1117
168.649196 83.457 39.6062
169.871298 83.461 37.4216
171.102255 83.542 36.3851
172.342133 83.746 35.2269
173.590995 84.014 33.2051
174.848907 84.311 31.0988
176.115934 84.664 28.8347
177.392143 85.052 25.6672
178.677599 85.420 21.5430
179.972371 85.716 16.4724
181.276525 85.907 10.7957
182.590129 85.993 4.8357
183.913252 85.988 -1.3644
185.245964 85.904 -7.7687
186.588332 85.746 -14.6006
187.940428 85.470 -22.4365
189.302322 84.973 -31.3644
190.674085 84.148 -40.6743
192.055788 82.931 -49.2108
193.447503 81.317 -55.2849
194.849303 79.414 -57.1523
196.261262 77.476 -53.9038
197.683452 75.930 -45.5593
199.115948 75.205 -36.4233
200.558824 75.174 -32.9000
202.012156 75.195 -36.9233
203.476019 74.693 -46.5807
204.950490 73.438 -59.3052
206.435646 71.729 -77.3123
207.931564 71.023 -147.3998
209.438322 72.593 101.3929
210.955998 74.857 77.7792
212.484672 76.686 62.2993
214.024424 78.014 50.6941
215.575333 78.978 41.4272
217.137481 79.707 33.4556
218.710948 80.262 25.8073
220.295818 80.646 17.8965
221.892172 80.781 8.7948
223.500094 80.531 -1.1960
225.119668 79.798 -10.5664
226.750978 78.575 -17.3108
228.394109 76.956 -19.5665
230.049147 75.238 -14.1855
231.716178 74.200 2.5081
233.395289 74.567 20.1703
235.086567 75.731 25.9807
236.790102 76.850 24.9999
238.505980 77.793 23.8081
240.234293 78.737 23.6696
241.975130 79.667 21.6643
243.728581 80.385 16.7454
245.494739 80.761 10.5149
247.273695 80.848 5.1101
249.065542 80.866 2.3182
250.870374 81.063 1.1279
252.688284 81.448 -1.1626
254.519367 81.859 -5.2543
256.363720 82.154 -10.7701
258.221437 82.260 -17.2755
260.092616 82.152 -24.0360
261.977354 81.888 -29.8088
263.875750 81.621 -34.0142
265.787903 81.454 -38.3981
267.713911 81.251 -45.6481
269.653877 80.701 -55.8317
271.607900 79.571 -65.7247
273.576083 77.896 -70.6543
275.558528 76.021 -69.1636
277.555338 74.316 -66.5175
279.566619 72.747 -66.1738
281.592474 71.045 -66.9169
283.633009 69.505 -59.6913
285.688331 69.927 3.6317
287.758546 72.422 29.5563
289.843763 74.918 24.7004
291.944090 76.756 15.5200
294.059638 77.975 5.6586
296.190515 78.669 -4.1119
298.336833 78.893 -13.3771
300.498705 78.709 -20.9426
302.676243 78.382 -23.8936
304.869559 78.557 -19.5911
307.078770 79.677 -14.0652
309.303989 81.255 -16.4784
311.545334 82.662 -25.5502
313.802919 83.665 -38.0072
316.076865 84.245 -51.9094
318.367288 84.466 -66.0970
320.674309 84.386 -80.3359
322.998047 84.038 -94.4004
325.338624 83.496 -107.3291
327.696162 82.947 -118.7285
330.070783 82.538 -130.5576
332.462612 82.178 -144.8320
334.871773 81.643 -161.0637
337.298392 80.814 -177.2273
339.742595 79.808 169.0737
342.204510 78.998 158.6465
344.684265 78.687 148.0845
347.181989 78.629 133.5256
349.697813 78.324 116.4766
352.231868 77.588 101.5518
354.784285 76.755 93.4944
357.355198 76.505 91.1685
359.944741 76.872 84.5088
362.553049 77.144 72.1089
365.180258 76.925 59.2600
367.826505 76.198 47.9785
370.491927 74.960 38.9614
373.176665 73.418 39.5073
375.880856 72.682 57.8271
378.604644 73.751 73.6060
381.348169 75.784 77.9226
384.111575 77.839 74.8313
386.895006 79.527 66.1868
389.698607 80.723 54.2993
392.522524 81.459 41.5298
395.366904 81.798 28.2627
398.231895 81.648 13.4192
401.117648 80.820 -1.5725
404.024312 79.482 -7.0635
406.952038 78.888 10.6917
409.900981 79.763 15.7122
412.871292 80.794 4.0947
415.863128 81.156 -11.9272
418.876643 80.686 -28.1968
421.911996 79.505 -39.5322
424.969344 78.136 -42.6172
428.048847 77.140 -45.5120
431.150666 76.515 -50.7114
434.274961 76.317 -54.3376
437.421897 76.754 -60.3057
440.591636 77.557 -73.9500
443.784345 78.240 -95.7834
447.000189 78.548 -123.4485
450.239337 78.498 -154.0154
453.501956 78.173 174.8728
456.788219 77.542 145.6812
460.098294 76.626 122.5320
463.432356 76.072 112.9194
466.790578 76.820 111.9902
470.173135 78.066 99.6392
473.580203 78.526 78.9663
477.011961 77.893 60.6626
480.468586 77.163 66.3430
483.950259 78.249 95.3372
487.457163 80.315 91.2339
490.989478 81.790 75.2224
494.547390 82.383 58.4529
498.131084 82.429 46.2170
501.740748 82.488 38.7058
505.376568 82.792 30.5676
509.038735 83.024 18.0171
512.727439 82.797 2.2739
516.442874 81.917 -14.6785
520.185232 80.303 -31.7974
523.954708 77.974 -48.7920
527.751500 75.670 -70.2700
531.575805 75.678 139.2610
535.427822 77.679 93.6951
539.307753 79.351 68.3821
543.215800 80.171 49.0317
547.152165 80.342 35.0312
551.117055 80.171 26.0276
555.110677 79.873 19.3743
559.133237 79.349 12.0364
563.184947 78.557 9.9980
567.266018 78.243 19.9814
571.376661 78.947 26.0996
575.517092 80.132 25.1797
579.687526 81.287 19.8142
583.888181 82.198 11.1501
588.119275 82.706 -0.7527
592.381030 82.660 -14.8030
596.673667 81.943 -29.7883
600.997410 80.449 -43.2505
605.352485 78.200 -51.1467
609.739119 75.499 -49.5093
614.157540 73.339 -25.8147
618.607979 73.105 -0.8120
623.090667 74.427 5.9309
627.605839 76.788 23.8149
632.153730 79.120 19.3870
636.734576 80.362 -1.5974
641.348617 80.300 -25.4990
645.996094 79.221 -46.7942
650.677248 77.857 -67.9431
655.392323 76.952 -105.5752
660.141566 76.625 -178.4946
664.925224 77.062 120.4277
669.743546 78.275 90.3660
674.596784 79.736 72.2673
679.485191 81.109 58.5779
684.409020 81.914 42.1157
689.368530 81.916 28.5957
694.363979 81.889 26.2310
699.395626 82.474 22.1494
704.463736 83.088 10.4297
709.568570 82.962 -6.6030
714.710396 81.749 -22.2856
719.889483 79.583 -28.6587
725.106099 77.099 -21.2539
730.360516 75.381 -8.8687
735.653010 75.491 14.1699
740.983855 77.117 31.2883
746.353329 78.439 23.9622
751.761713 79.020 18.4402
757.209288 80.248 41.3230
762.696339 82.255 45.7791
768.223151 83.741 33.2354
773.790013 84.343 19.7627
779.397214 84.399 11.6565
785.045047 84.479 8.3630
790.733808 84.925 7.1870
796.463791 85.855 6.7812
802.235296 86.941 0.9968
808.048623 87.844 -7.7195
813.904077 88.507 -17.9424
819.801961 88.827 -29.9902
825.742584 88.884 -40.6902
831.726255 88.931 -50.6921
837.753287 88.987 -62.5291
843.823992 88.800 -78.0977
849.938689 88.038 -95.5837
856.097695 86.815 -109.8325
862.301332 85.760 -123.5327
868.549922 85.125 -146.1206
874.843793 84.637 178.5146
881.183272 84.216 127.5400
887.568689 83.869 69.8276
894.000378 83.548 24.3728
900.478673 83.347 -6.6238
907.003913 83.370 -30.9148
913.576437 83.223 -56.7292
920.196588 82.525 -86.0327
926.864712 81.558 -124.0618
933.581156 81.197 168.6431
940.346270 82.085 90.7249
947.160407 83.334 45.7241
954.023921 84.156 16.2217
960.937172 84.422 -7.1147
967.900519 83.913 -25.6562
974.914325 83.039 -34.3223
981.978956 82.695 -35.4048
989.094780 82.906 -41.5820
996.262169 82.755 -54.7236
1003.481495 82.176 -63.0078
1010.753136 82.499 -41.3604
1018.077470 84.000 -33.5229
1025.454879 85.056 -51.0151
1032.885748 85.108 -70.5762
1040.370463 84.224 -87.2251
1047.909417 82.738 -95.3413
1055.503000 81.798 -86.7505
1063.151610 82.348 -84.6167
1070.855645 83.102 -98.8613
1078.615506 82.822 -120.3574
1086.431599 81.250 -138.8750
1094.304330 78.925 -150.1655
1102.234110 76.612 -167.6660
1110.221353 75.150 152.8398
1118.266475 76.463 -17.5469
1126.369895 79.143 -46.2539
1134.532035 80.966 -75.9805
1142.753322 81.532 -106.4941
1151.034184 80.936 -136.2002
1159.375052 79.277 -162.8213
1167.776361 76.971 176.9180
1176.238550 75.129 159.5469
1184.762060 74.987 136.6499
1193.347334 76.120 103.0225
1201.994821 77.188 66.1001
1210.704971 78.537 43.5264
1219.478238 80.037 16.1509
1228.315080 80.375 -18.9268
1237.215957 79.116 -46.0371
1246.181334 77.135 -57.1704
1255.211678 75.202 -74.6050
1264.307459 73.348 -90.1821
1273.469152 73.577 41.9385
1282.697235 75.482 25.8467
1291.992188 77.440 8.9683
1301.354495 79.570 -1.3984
1310.784647 81.750 -13.7183
1320.283132 83.551 -31.3667
1329.850448 84.446 -56.1426
1339.487093 84.138 -83.4922
1349.193569 82.701 -109.9878
1358.970381 80.167 -132.7310
1368.818041 76.962 -129.2549
1378.737061 74.865 -89.4634
1388.727958 74.299 -105.1064
1398.791253 75.186 -66.9307
1408.927471 77.757 10.8052
1419.137140 80.125 -19.0928
1429.420793 81.041 -51.5771
1439.778965 80.300 -78.9893
1450.212197 78.658 -87.7773
1460.721033 77.760 -76.1440
1471.306019 78.201 -53.6445
1481.967709 78.695 -66.7974
1492.706658 78.766 -70.8799
1503.523426 78.875 -66.6426
1514.418576 78.632 -77.2148
1525.392678 78.300 -87.2222
1536.446302 77.735 -97.4482
1547.580025 77.333 -70.1377
1558.794428 79.014 -44.9126
1570.090095 81.748 -47.8364
1581.467615 83.551 -67.3252
1592.927581 84.015 -89.4419
1604.470591 83.646 -107.1191
1616.097246 82.994 -118.3042
1627.808153 82.811 -109.5049
1639.603922 83.646 -110.3228
1651.485168 84.872 -123.3242
1663.452510 85.878 -143.4834
1675.506573 85.938 -171.9634
1687.647984 85.157 154.3408
1699.877377 83.749 108.6201
1712.195390 82.594 31.1421
1724.602663 82.808 -45.2710
1737.099845 83.045 -89.0835
1749.687587 82.857 -115.7500
1762.366544 82.638 -135.8823
1775.137379 82.052 -154.2671
1788.000756 81.318 -166.6353
1800.957346 80.641 176.2310
1814.007826 79.206 154.1357
1827.152874 76.944 168.5688
1840.393177 76.504 -107.9595
1853.729425 79.330 -97.8213
1867.162312 82.508 -111.2769
1880.692540 84.628 -134.7632
1894.320813 85.198 -163.6128
1908.047843 84.064 170.8999
1921.874344 81.860 161.8398
1935.801038 80.399 -178.7959
1949.828650 80.437 -172.3091
1963.957912 80.847 -179.4668
1978.189561 81.268 173.3755
1992.524338 81.484 166.4038
2006.962991 81.086 158.8940
2021.506272 80.661 161.5830
2036.154940 80.571 155.6689
2050.909758 80.611 152.4507
2065.771495 81.303 150.2305
2080.740927 81.645 134.8359
2095.818833 80.639 118.7456
2111.006001 79.525 134.0615
2126.303220 79.850 -174.6226
2141.711290 81.311 -178.5254
2157.231013 82.505 165.9087
2172.863198 82.906 150.8774
2188.608660 82.922 141.2153
2204.468221 83.100 136.4224
2220.442706 83.181 126.1616
2236.532950 82.653 115.1567
2252.739789 82.116 116.9097
2269.064070 83.007 127.2100
2285.506644 84.391 118.3823
2302.068367 84.873 98.3442
2318.750104 84.101 75.2524
2335.552723 81.937 58.1943
2352.477101 79.236 71.3643
2369.524119 78.070 105.2808
2386.694668 78.737 115.6050
2403.989641 79.955 121.7432
2421.409941 81.069 115.0942
2438.956476 80.914 97.8530
2456.630160 80.047 96.9717
2474.431915 80.562 114.3296
2492.362668 81.959 114.0752
2510.423356 82.907 106.5591
2528.614918 82.977 94.7251
2546.938304 83.137 93.9517
2565.394469 84.271 90.5542
2583.984375 85.296 74.1113
2602.708991 85.271 50.6440
2621.569293 83.730 28.7153
2640.566265 80.943 23.2285
2659.700897 78.373 34.9302
2678.974186 77.341 43.4429
2698.387137 76.811 46.6196
2717.940763 77.146 95.0107
2737.636082 78.384 90.2900
2757.474121 78.904 73.2036
2777.455915 79.000 74.1899
2797.582506 79.599 88.6250
2817.854942 80.040 76.9009
2838.274281 79.897 62.3687
2858.841586 79.748 57.2837
2879.557931 80.015 50.3267
2900.424394 79.754 30.8501
2921.442065 78.863 18.9141
2942.612039 78.730 33.3125
2963.935418 78.971 14.6055
2985.413316 78.255 -60.1621
3007.046852 77.905 149.7510
3028.837153 78.367 117.0288
3050.785356 78.549 95.6562
3072.892604 78.476 78.6260
3095.160050 78.396 75.8301
3117.588856 79.477 96.1616
3140.180190 80.971 80.6484
3162.935230 81.099 51.8413
3185.855163 79.352 27.8145
3208.941182 76.190 29.5103
3232.194493 73.284 64.9316
3255.616307 73.214 97.2773
3279.207844 75.252 112.6343
3302.970336 77.608 115.2822
3326.905021 80.055 117.1860
3351.013146 81.658 99.4663
3375.295969 81.604 73.5449
3399.754755 80.255 60.3604
3424.390779 78.773 66.0771
3449.205326 77.961 63.4971
3474.199690 77.363 53.1069
3499.375173 76.574 45.6260
3524.733088 76.666 116.2212
3550.274757 77.961 114.2275
3576.001511 78.522 94.3696
3601.914692 78.476 87.5864
3628.015651 78.950 90.3101
3654.305748 79.081 79.9072
3680.786354 78.290 74.5166
3707.458849 77.729 81.7300
3734.324624 78.431 87.9790
3761.385080 79.116 75.2725
3788.641627 78.970 61.4160
3816.095686 79.495 106.3228
3843.748688 80.893 113.9443
3871.602076 81.466 95.2363
3899.657300 81.339 83.6313
3927.915825 81.127 75.9307
3956.379122 81.175 73.6709
3985.048676 81.516 67.0967
4013.925981 81.013 54.0830
4043.012544 79.619 57.1025
4072.309879 78.642 66.2803
4101.819515 78.732 75.4307
4131.542990 79.695 75.8501
4161.481854 80.374 66.4224
4191.637667 80.238 55.7939
4222.012001 79.705 56.3672
4252.606441 79.764 61.3008
4283.422580 79.678 51.5098
4314.462026 78.781 43.0762
4345.726396 77.973 47.1655
4377.217321 78.557 65.2588
4408.936442 79.246 58.2310
4440.885413 78.480 52.1577
4473.065899 77.575 67.2705
4505.479579 77.768 70.9624
4538.128141 78.323 67.8408
4571.013288 78.386 59.7891
4604.136735 77.799 53.8838
4637.500207 77.358 56.5518
4671.105446 78.064 68.4888
4704.954201 78.949 64.7422
4739.048239 79.050 60.0288
4773.389336 79.620 78.3032
4807.979283 80.203 71.5986
4842.819883 79.596 58.1934
4877.912952 78.397 56.9087
4913.260320 77.685 61.5747
4948.863830 77.716 65.5093
4984.725337 78.381 70.4048
5020.846712 79.334 70.3086
5057.229836 80.210 69.3315
5093.876609 81.192 68.9961
5130.788938 81.301 56.2500
5167.968750 80.533 56.8877
5205.417982 80.410 60.8159
5243.138586 80.591 51.8506
5281.132530 80.570 57.9175
5319.401793 81.173 68.9497
5357.948371 81.648 58.6787
5396.774274 81.616 52.1006
5435.881525 81.472 45.6431
5475.272163 80.895 35.7036
5514.948243 79.883 31.2256
5554.911831 79.412 45.2544
5595.165012 80.334 57.6665
5635.709884 81.233 46.5869
5676.548561 81.148 36.3262
5717.683172 80.970 40.9541
5759.115861 80.631 33.6772
5800.848789 79.425 30.3765
5842.884130 78.561 41.2769
5885.224077 79.012 48.6201
5927.870837 80.051 48.0107
5970.826633 80.834 42.1670
6014.093704 81.299 35.9614
6057.674306 81.091 25.6177
6101.570711 80.304 24.1104
6145.785208 80.083 30.0078
6190.320101 80.377 26.7271
6235.177712 80.540 20.3613
6280.360380 80.501 12.2979
6325.870460 79.866 1.9233
6371.710325 78.626 -1.6963
6417.882365 77.469 8.1650
6464.388986 77.035 13.6328
6511.232613 77.081 18.9883
6558.415689 77.383 24.1226
6605.940673 77.188 18.0845
6653.810042 76.534 21.1104
6702.026292 76.291 27.7671
6750.591937 76.716 29.7280
6799.509509 77.796 30.5366
6848.781558 78.604 19.5532
6898.410653 77.984 3.7310
6948.399380 76.424 -0.5928
6998.750346 75.435 7.8228
7049.466176 75.527 33.7231
7100.549514 75.667 33.0928
7152.003023 75.118 28.4365
7203.829385 74.789 41.9897
7256.031302 75.453 51.8086
7308.611496 76.269 51.9346
7361.572708 77.224 53.9082
7414.917698 77.936 46.8809
7468.649249 78.107 43.8408
7522.770160 78.460 42.5615
7577.283253 79.123 46.6709
7632.191371 79.920 46.3784
7687.497376 80.097 35.5352
7743.204151 79.643 26.7363
7799.314600 78.949 23.4956
7855.831649 78.591 29.7759
7912.758244 78.985 33.2817
7970.097352 79.227 27.1763
8027.851962 79.097 24.2236
8086.025087 79.032 24.2354
8144.619758 79.355 28.1938
8203.639030 80.066 27.9673
8263.085980 80.282 18.2983
8322.963708 79.858 12.3301
8383.275334 79.236 11.7212
8444.024002 79.184 23.0630
8505.212881 79.890 22.0615
8566.845160 80.445 12.6274
8628.924051 80.352 0.9722
8691.452792 79.467 0.1748
8754.434642 78.691 7.2969
8817.872884 78.178 5.3521
8881.770826 77.673 2.1714
8946.131799 77.204 9.6816
9010.959157 77.501 26.8896
9076.256282 78.421 29.7271
9142.026576 79.083 21.4717
9208.273470 79.292 16.7266
9275.000415 79.507 18.8989
9342.210891 80.015 20.9819
9409.908403 80.170 11.7373
9478.096478 79.320 5.0713
9546.778672 78.610 12.4849
9615.958566 79.117 21.0229
9685.639765 80.112 17.7065
9755.825904 80.417 7.8032
9826.520640 80.047 3.3574
9897.727659 79.792 4.1123
9969.450674 79.676 -0.8271
10041.693423 79.269 -5.9307
10114.459673 78.955 -3.2598
10187.753217 79.234 0.9258
10261.577877 79.326 -4.3032
10335.937500 78.863 -7.5039
10410.835964 78.599 -0.1030
10486.277173 79.115 2.8003
10562.265060 79.762 -3.5088
10638.803587 79.798 -13.6611
10715.896743 79.295 -18.8555
10793.548548 78.857 -21.4365
10871.763050 78.246 -27.9014
10950.544327 77.178 -24.4746
11029.896485 76.738 -13.5308
11109.823662 76.857 -10.7339
11190.330024 76.653 -16.2437
11271.419768 76.433 -12.9624
11353.097122 76.948 -9.0464
11435.366344 77.156 -17.6797
11518.231722 76.703 -21.3389
11601.697577 76.520 -17.5430
11685.768261 76.268 -24.0044
11770.448155 75.364 -25.0239
11855.741674 74.941 -9.0381
11941.653265 75.190 -6.6890
12028.187408 75.195 -10.2446
12115.348612 75.367 -4.1343
12203.141422 75.850 -5.1851
12291.570415 75.577 -14.3403
12380.640201 74.552 -11.5654
12470.355424 73.686 -2.2866
12560.720760 73.696 5.7070
12651.740920 74.738 13.6558
12743.420650 75.919 14.0669
12835.764729 76.552 10.3394
12928.777972 77.204 11.9604
13022.465227 78.334 11.6841
13116.831378 79.284 3.9204
13211.881345 79.525 -6.4380
13307.620084 79.134 -14.6807
13404.052584 78.395 -20.8184
13501.183875 77.610 -22.9165
13599.019019 77.363 -18.5425
13697.563116 77.372 -20.5186
13796.821305 77.007 -23.0103
13896.798760 76.886 -22.3652
13997.500692 76.869 -27.6230
14098.932352 76.533 -31.7690
14201.099028 76.261 -33.1016
14304.006046 75.968 -38.0762
14407.658770 75.515 -40.5298
14512.062604 75.185 -42.3203
14617.222992 74.576 -46.9746
14723.145416 73.793 -45.6060
14829.835397 73.290 -45.4077
14937.298497 72.788 -47.4458
15045.540320 72.281 -42.4136
15154.566507 71.958 -41.7402
15264.382743 71.740 -42.8853
15374.994752 71.610 -43.7441
15486.408302 71.257 -48.4321
15598.629201 70.761 -49.4727
15711.663298 70.469 -51.0259
15825.516487 70.001 -51.3970
15940.194703 69.432 -49.1982
16055.703925 68.915 -51.9106
16172.050174 68.404 -51.8169
16289.239516 67.878 -56.2202
16407.278061 66.843 -60.5654
16526.171961 65.718 -60.2559
16645.927415 64.635 -57.3188
16766.550667 63.695 -23.6797
16888.048005 63.665 -5.4180
17010.425762 64.731 12.8335
17133.690320 66.002 15.2896
17257.848103 67.197 24.4502
17382.905584 68.172 20.8828
17508.869284 69.017 20.9575
17635.745768 69.684 15.6182
17763.541652 70.095 10.6943
17892.263597 70.304 4.8418
18021.918315 69.967 0.6021
18152.512564 69.545 1.6899
18284.053153 69.439 2.1206
18416.546939 69.649 2.8511
18550.000830 70.061 0.6562
18684.421783 70.453 -4.6084
18819.816805 70.454 -12.8184
18956.192956 70.018 -20.1792
19093.557344 69.276 -26.8828
19231.917131 68.223 -31.6094
19371.279531 67.045 -34.3628
19511.651807 65.901 -35.9790
19653.041280 64.791 -36.6885
19795.455318 63.630 -37.0942
19938.901348 62.719 -37.4067
