* Measurement data measured by REW V5.31.1
* Source: Scarlett 2i4 USB, MICROPHONE, R, volume: no control
* Format: 512k Log Swept Sine, 1 sweep at -18.0 dBFS with no timing reference
* Dated: May 16, 2024 6:58:11 AM
* REW Settings:
*  C-weighting compensation: Off
*  Target level: 75.0 dB
* Note: ; 
* Measurement: bns-back1-p1-r
* Smoothing: 1/48 octave
* Frequency Step: 96 ppo
* Start Frequency: 10.093689 Hz
*
* Freq(Hz) SPL(dB) Phase(degrees)
10.093689 37.273 -5.6574
10.166832 37.609 -7.0091
10.240505 38.014 -8.4451
10.314712 38.430 -9.9348
10.389457 38.845 -11.4593
10.464743 39.239 -13.0201
10.540575 39.600 -14.6652
10.616956 39.937 -16.3511
10.693891 40.251 -18.0296
10.771383 40.539 -19.6649
10.849437 40.800 -21.3284
10.928057 41.035 -23.0327
11.007246 41.244 -24.7025
11.087009 41.425 -26.2704
11.167350 41.578 -27.7549
11.248273 41.701 -29.2474
11.329783 41.797 -30.6657
11.411883 41.866 -31.9203
11.494578 41.907 -32.9761
11.577873 41.917 -33.9385
11.661771 41.903 -34.7436
11.746277 41.871 -35.3022
11.831395 41.821 -35.5521
11.917130 41.749 -35.5484
12.003487 41.668 -35.2613
12.090469 41.596 -34.6483
12.178081 41.540 -33.6638
12.266329 41.492 -32.2990
12.355216 41.473 -30.6140
12.444747 41.507 -28.6962
12.534926 41.601 -26.5432
12.625760 41.752 -24.1723
12.717251 41.958 -21.7674
12.809406 42.223 -19.5038
12.902228 42.555 -17.3346
12.995723 42.940 -15.3274
13.089895 43.356 -13.6086
13.184750 43.792 -12.2277
13.280292 44.254 -11.0989
13.376526 44.729 -10.2496
13.473458 45.201 -9.7018
13.571093 45.667 -9.4056
13.669434 46.130 -9.3284
13.768489 46.581 -9.4685
13.868261 47.018 -9.8105
13.968756 47.442 -10.3164
14.069979 47.851 -10.9812
14.171936 48.243 -11.8035
14.274632 48.619 -12.7663
14.378072 48.975 -13.8498
14.482261 49.311 -15.0441
14.587206 49.625 -16.3689
14.692910 49.917 -17.7924
14.799381 50.183 -19.2660
14.906624 50.421 -20.8215
15.014643 50.631 -22.4556
15.123446 50.810 -24.0650
15.233036 50.957 -25.6507
15.343421 51.072 -27.2601
15.454606 51.156 -28.7531
15.566596 51.210 -30.0814
15.679398 51.234 -31.3151
15.793018 51.240 -32.3300
15.907460 51.232 -33.0466
16.022732 51.213 -33.5157
16.138840 51.206 -33.7141
16.255788 51.221 -33.5803
16.373585 51.264 -33.1546
16.492234 51.355 -32.6076
16.611744 51.506 -32.0247
16.732119 51.713 -31.3253
16.853367 51.971 -30.5950
16.975494 52.285 -30.2022
17.098505 52.635 -30.0452
17.222408 52.999 -30.2700
17.347209 53.377 -30.7995
17.472914 53.749 -31.5966
17.599530 54.101 -32.6760
17.727063 54.433 -33.9864
17.855521 54.736 -35.3899
17.984909 55.009 -36.9205
18.115235 55.254 -38.5020
18.246506 55.474 -40.0198
18.378727 55.671 -41.5294
18.511907 55.853 -42.9615
18.646052 56.025 -44.2909
18.781169 56.189 -45.5505
18.917265 56.352 -46.7420
19.054347 56.514 -47.8673
19.192423 56.672 -48.9513
19.331499 56.827 -50.0197
19.471583 56.974 -51.0361
19.612682 57.106 -51.9834
19.754804 57.225 -52.8670
19.897956 57.330 -53.5459
20.042144 57.421 -54.0434
20.187378 57.515 -54.2709
20.333664 57.622 -54.1458
20.481010 57.758 -53.7466
20.629424 57.953 -53.1003
20.778913 58.211 -52.2627
20.929486 58.543 -51.5695
21.081150 58.949 -50.9764
21.233912 59.400 -50.8259
21.387782 59.884 -51.1128
21.542767 60.367 -51.8368
21.698874 60.824 -53.0555
21.856113 61.240 -54.5475
22.014492 61.596 -56.2538
22.174018 61.894 -58.0368
22.334700 62.135 -59.6418
22.496546 62.333 -61.0928
22.659566 62.513 -62.1137
22.823766 62.695 -62.7953
22.989157 62.921 -63.1367
23.155745 63.203 -63.2195
23.323542 63.560 -63.4079
23.492554 63.983 -63.7113
23.662790 64.443 -64.5278
23.834261 64.918 -65.7458
24.006973 65.362 -67.4466
24.180938 65.758 -69.4803
24.356163 66.082 -71.5904
24.532658 66.338 -73.6717
24.710431 66.536 -75.2959
24.889493 66.713 -76.4521
25.069853 66.924 -76.8006
25.251519 67.231 -76.6725
25.434502 67.693 -76.0841
25.618811 68.317 -75.9125
25.804456 69.093 -76.2845
25.991445 69.940 -77.9477
26.179790 70.806 -80.6781
26.369500 71.611 -84.6424
26.560584 72.321 -89.4659
26.753053 72.897 -95.0548
26.946917 73.326 -100.9720
27.142185 73.593 -107.2426
27.338869 73.696 -113.2263
27.536977 73.637 -119.0508
27.736522 73.431 -123.9778
27.937512 73.113 -128.0167
28.139959 72.736 -130.5591
28.343872 72.415 -131.7065
28.549264 72.242 -131.3343
28.756143 72.329 -130.4722
28.964522 72.663 -129.8711
29.174411 73.183 -130.3965
29.385821 73.745 -132.4456
29.598763 74.261 -135.7926
29.813248 74.643 -140.2379
30.029287 74.853 -145.1270
30.246891 74.873 -150.3369
30.466073 74.700 -155.1001
30.686842 74.355 -159.1089
30.909212 73.878 -161.8931
31.133193 73.364 -162.8825
31.358797 72.946 -162.1241
31.586035 72.752 -159.7397
31.814921 72.881 -157.0963
32.045465 73.275 -155.2364
32.277680 73.832 -154.7988
32.511577 74.400 -155.9697
32.747169 74.900 -158.2444
32.984469 75.288 -161.2717
33.223488 75.554 -164.5978
33.464239 75.715 -167.7807
33.706735 75.800 -170.6432
33.950987 75.849 -172.9846
34.197010 75.914 -174.7465
34.444816 76.039 -176.1010
34.694417 76.250 -177.2606
34.945827 76.559 -178.5302
35.199059 76.948 179.7015
35.454126 77.380 177.2543
35.711041 77.814 174.0625
35.969818 78.210 170.1179
36.230470 78.530 165.5555
36.493011 78.751 160.5956
36.757455 78.858 155.4394
37.023814 78.847 150.3015
37.292104 78.726 145.4690
37.562338 78.519 141.2125
37.834530 78.267 137.6740
38.108695 78.018 134.9145
38.384846 77.824 132.8621
38.662999 77.729 131.2487
38.943167 77.746 129.6614
39.225365 77.860 127.7834
39.509608 78.042 125.4343
39.795911 78.264 122.5473
40.084289 78.507 119.1245
40.374756 78.763 115.1758
40.667328 79.030 110.6608
40.962020 79.300 105.4875
41.258848 79.559 99.5628
41.557827 79.786 92.8268
41.858972 79.958 85.2671
42.162299 80.052 76.9158
42.467824 80.054 67.8388
42.775564 79.953 58.1205
43.085533 79.747 47.8484
43.397749 79.441 37.0998
43.712227 79.045 25.9363
44.028983 78.576 14.3942
44.348036 78.053 2.4989
44.669400 77.496 -9.7095
44.993093 76.927 -22.1432
45.319131 76.370 -34.6384
45.647532 75.849 -46.9354
45.978313 75.393 -58.6953
46.311491 75.039 -69.5645
46.647083 74.829 -79.2844
46.985107 74.799 -87.8037
47.325581 74.962 -95.3114
47.668521 75.286 -102.1235
48.013947 75.711 -108.4747
48.361876 76.173 -114.3704
48.712326 76.646 -119.6007
49.065315 77.150 -123.9020
49.420863 77.743 -127.1896
49.778987 78.489 -129.7366
50.139706 79.411 -132.1191
50.503039 80.479 -134.9159
50.869005 81.646 -138.4720
51.237623 82.868 -142.9202
51.608912 84.119 -148.3584
51.982891 85.369 -154.9554
52.359580 86.571 -162.8954
52.739000 87.664 -172.2502
53.121168 88.583 177.0950
53.506106 89.276 165.4277
53.893833 89.704 153.1172
54.284370 89.846 140.6047
54.677737 89.699 128.3995
55.073955 89.283 117.0357
55.473043 88.644 107.0121
55.875024 87.858 98.6693
56.279917 87.020 92.0588
56.687745 86.214 86.8577
57.098527 85.475 82.5183
57.512287 84.787 78.6670
57.929045 84.121 75.3099
58.348822 83.479 72.6516
58.771642 82.897 70.7549
59.197525 82.417 69.3466
59.626495 82.048 67.9922
60.058573 81.761 66.4059
60.493782 81.520 64.5411
60.932145 81.305 62.4759
61.373685 81.108 60.2544
61.818424 80.926 57.8729
62.266386 80.751 55.3261
62.717593 80.580 52.6165
63.172071 80.408 49.7299
63.629842 80.228 46.6561
64.090930 80.030 43.4462
64.555359 79.817 40.2280
65.023154 79.608 37.0773
65.494339 79.432 33.8613
65.968938 79.294 30.2149
66.446976 79.163 25.8001
66.928478 78.982 20.5341
67.413469 78.707 14.6092
67.901975 78.321 8.2775
68.394021 77.835 1.6645
68.889632 77.257 -5.3787
69.388835 76.567 -13.1310
69.891655 75.705 -21.8248
70.398118 74.572 -31.3747
70.908252 73.045 -41.3352
71.422083 70.987 -49.9605
71.939636 68.467 -51.5185
72.460941 66.743 -26.7586
72.986023 67.812 4.2371
73.514909 70.203 2.3472
74.047629 72.226 -11.2908
74.584208 73.675 -28.1867
75.124676 74.764 -45.1205
75.669061 75.750 -60.9127
76.217390 76.827 -75.3879
76.769692 78.038 -89.1595
77.325997 79.315 -102.7761
77.886333 80.568 -116.4632
78.450730 81.731 -130.2590
79.019216 82.746 -144.2300
79.591822 83.556 -158.3303
80.168577 84.116 -172.3162
80.749512 84.413 174.1892
81.334656 84.470 161.6028
81.924040 84.326 150.0903
82.517696 83.998 139.5557
83.115653 83.462 129.9551
83.717943 82.664 121.7864
84.324598 81.605 116.5602
84.935649 80.496 116.7708
85.551128 79.903 123.7739
86.171066 80.329 132.7139
86.795497 81.490 136.7958
87.424453 82.795 135.7456
88.057967 83.985 131.9917
88.696071 85.047 126.9999
89.338800 86.015 121.0461
89.986185 86.887 113.8926
90.638262 87.618 105.3538
91.295065 88.151 95.4368
91.956626 88.415 84.3011
92.622982 88.337 72.3328
93.294166 87.849 60.2896
93.970214 86.918 49.3470
94.651161 85.572 40.9736
95.337042 83.931 36.6769
96.027894 82.237 37.7660
96.723752 80.928 44.7523
97.424652 80.530 54.8611
98.130631 81.090 61.9918
98.841726 82.081 63.2646
99.557974 83.022 59.7308
100.279412 83.679 53.1819
101.006078 83.978 45.2550
101.738010 83.946 37.3390
102.475245 83.675 30.2354
103.217823 83.258 23.9963
103.965782 82.747 18.4254
104.719161 82.171 13.6426
105.477999 81.597 9.8954
106.242336 81.124 6.8785
107.012212 80.806 3.5000
107.787666 80.592 -1.3879
108.568740 80.354 -8.2240
109.355474 79.978 -16.7700
110.147909 79.399 -26.5822
110.946086 78.614 -37.3328
111.750047 77.670 -49.0790
112.559834 76.654 -62.5011
113.375489 75.669 -78.8104
114.197055 74.824 -99.1328
115.024574 74.216 -123.2795
115.858089 73.913 -148.6367
116.697645 73.927 -171.4523
117.543284 74.189 170.4058
118.395051 74.585 156.8157
119.252990 75.018 146.9249
120.117147 75.469 140.1913
120.987565 76.008 136.2368
121.864291 76.724 134.0969
122.747370 77.619 132.3093
123.636848 78.618 129.8750
124.532771 79.639 126.5850
125.435187 80.617 122.3257
126.344142 81.485 117.0236
127.259684 82.201 111.1215
128.181860 82.770 105.1307
129.110718 83.213 99.2057
130.046308 83.549 93.4788
130.988677 83.804 88.0216
131.937875 83.992 82.6941
132.893951 84.107 77.3965
133.856956 84.125 72.0203
134.826938 84.002 66.6545
135.803950 83.729 62.1201
136.788041 83.388 59.2517
137.779264 83.099 57.7266
138.777669 82.915 56.6577
139.783309 82.813 55.3915
140.796237 82.721 53.6580
141.816504 82.592 52.0414
142.844165 82.447 51.1368
143.879273 82.325 50.7004
144.921881 82.246 50.7538
145.972045 82.289 52.0839
147.029819 82.577 54.3082
148.095257 83.098 55.2522
149.168417 83.704 54.2098
150.249353 84.338 52.5155
151.338121 85.052 50.3870
152.434780 85.810 46.4114
153.539385 86.463 39.8323
154.651995 86.868 31.2576
155.772667 86.951 21.6168
156.901460 86.685 11.8292
158.038432 86.095 2.8070
159.183644 85.220 -5.2847
160.337154 84.041 -12.6252
161.499023 82.489 -18.1187
162.669312 80.584 -18.9303
163.848081 78.664 -10.7915
165.035392 77.586 7.1581
166.231306 77.893 21.8719
167.435887 78.888 26.7639
168.649196 79.872 26.6581
169.871298 80.714 25.2627
171.102255 81.464 22.8329
172.342133 82.056 17.9906
173.590995 82.383 11.4742
174.848907 82.485 5.1920
176.115934 82.421 -1.9637
177.392143 82.031 -11.5206
178.677599 81.097 -21.8004
179.972371 79.517 -30.5228
181.276525 77.294 -35.3884
182.590129 74.837 -28.1808
183.913252 74.094 24.8092
185.245964 76.157 57.1725
186.588332 78.713 55.7103
187.940428 80.658 46.7834
189.302322 81.900 35.5826
190.674085 82.535 24.2295
192.055788 82.716 14.1592
193.447503 82.613 5.7107
194.849303 82.318 -2.1785
196.261262 81.806 -10.0857
197.683452 81.065 -17.0420
199.115948 80.187 -22.8350
200.558824 79.222 -30.0693
202.012156 77.983 -41.7942
203.476019 76.253 -59.0830
204.950490 74.564 -90.1024
206.435646 74.639 103.1926
207.931564 76.236 78.5016
209.438322 77.774 63.8503
210.955998 78.975 55.4067
212.484672 80.007 50.1011
214.024424 80.841 44.1277
215.575333 81.360 37.4386
217.137481 81.603 32.0724
218.710948 81.782 29.4265
220.295818 82.167 29.0990
221.892172 82.837 28.1694
223.500094 83.613 24.4629
225.119668 84.266 18.0789
226.750978 84.645 9.7065
228.394109 84.637 0.0011
230.049147 84.162 -9.7679
231.716178 83.200 -17.8510
233.395289 81.808 -22.3481
235.086567 80.190 -20.9006
236.790102 78.941 -10.3502
238.505980 79.109 9.3365
240.234293 80.791 24.2991
241.975130 82.780 25.1393
243.728581 84.245 16.8705
245.494739 84.983 5.7711
247.273695 85.145 -3.4163
249.065542 85.094 -8.6752
250.870374 85.181 -11.4816
252.688284 85.493 -14.9844
254.519367 85.854 -20.9707
256.363720 86.037 -29.2050
258.221437 85.892 -38.6648
260.092616 85.344 -48.1835
261.977354 84.383 -56.0919
263.875750 83.101 -60.6389
265.787903 81.705 -60.6394
267.713911 80.509 -56.2629
269.653877 79.777 -50.6864
271.607900 79.638 -44.5803
273.576083 80.306 -35.6549
275.558528 81.705 -30.0957
277.555338 83.230 -33.2356
279.566619 84.398 -42.6927
281.592474 85.022 -55.4670
283.633009 85.047 -69.6523
285.688331 84.475 -83.3765
287.758546 83.387 -94.6377
289.843763 81.935 -102.9419
291.944090 80.214 -109.2822
294.059638 78.205 -113.0762
296.190515 76.019 -109.3711
298.336833 74.503 -89.8076
300.498705 74.896 -67.2013
302.676243 76.556 -60.2932
304.869559 78.171 -64.4089
307.078770 79.189 -74.5493
309.303989 79.559 -85.4990
311.545334 79.589 -92.8931
313.802919 79.725 -97.3511
316.076865 80.116 -103.1819
318.367288 80.666 -110.8425
320.674309 81.339 -119.7583
322.998047 82.023 -131.8525
325.338624 82.411 -148.6304
327.696162 82.176 -168.3757
330.070783 81.189 173.2651
332.462612 79.647 161.1145
334.871773 78.098 155.9702
337.298392 76.979 150.6294
339.742595 76.124 142.6919
342.204510 75.815 145.1248
344.684265 77.160 164.8257
347.181989 79.370 163.8413
349.697813 81.107 148.4897
352.231868 82.181 131.5994
354.784285 82.860 116.7114
357.355198 83.314 102.5767
359.944741 83.481 87.9504
362.553049 83.270 74.0217
365.180258 82.780 63.3833
367.826505 82.361 57.2297
370.491927 82.416 53.6804
373.176665 82.970 47.9470
375.880856 83.532 36.1838
378.604644 83.566 19.6724
381.348169 82.789 2.1919
384.111575 81.139 -12.0955
386.895006 78.786 -16.8364
389.698607 76.505 -3.0205
392.522524 75.660 14.2913
395.366904 76.151 17.8035
398.231895 76.906 15.3767
401.117648 77.619 12.3708
404.024312 78.234 6.7693
406.952038 78.445 -3.6707
409.900981 78.113 -13.6504
412.871292 77.474 -20.8279
415.863128 76.641 -29.1836
418.876643 75.378 -38.6235
421.911996 73.550 -43.6638
424.969344 71.568 -37.5220
428.048847 70.587 -22.7544
431.150666 71.096 -15.4924
434.274961 71.749 -27.1848
437.421897 71.427 -51.5984
440.591636 70.454 -85.5046
443.784345 70.141 90.3530
447.000189 70.462 51.4712
450.239337 70.199 27.5317
453.501956 69.520 25.5083
456.788219 69.511 32.1052
460.098294 69.753 23.5530
463.432356 69.382 10.7815
466.790578 68.278 -3.8555
470.173135 66.857 -22.1799
473.580203 66.773 137.0610
477.011961 68.962 121.0642
480.468586 72.236 120.0391
483.950259 75.502 121.5225
487.457163 77.946 107.6804
490.989478 79.397 89.3140
494.547390 80.068 72.6667
498.131084 80.129 57.8975
501.740748 79.592 44.9221
505.376568 78.495 36.3701
509.038735 77.248 36.9172
512.727439 76.922 49.9424
516.442874 78.138 62.2366
520.185232 79.812 60.2310
523.954708 80.864 48.0742
527.751500 80.857 32.2029
531.575805 79.882 21.8027
535.427822 79.114 36.4292
539.307753 79.966 56.9070
543.215800 81.237 50.3020
547.152165 81.719 37.5076
551.117055 81.640 31.2224
555.110677 82.158 38.5051
559.133237 83.703 43.1064
563.184947 85.253 33.7668
567.266018 86.194 18.9084
571.376661 86.367 1.4988
575.517092 85.591 -15.7925
579.687526 83.970 -25.2642
583.888181 82.153 -25.1226
588.119275 80.875 -22.1665
592.381030 80.258 -21.3225
596.673667 79.868 -24.2290
600.997410 79.251 -29.3044
605.352485 78.664 -24.6750
609.739119 78.963 -14.1636
614.157540 79.580 -20.0881
618.607979 79.577 -31.6733
623.090667 78.969 -41.8806
627.605839 77.895 -52.3530
632.153730 76.687 -54.1414
636.734576 76.357 -45.8818
641.348617 76.405 -61.8960
645.996094 75.339 -91.5762
650.677248 73.482 -121.4094
655.392323 73.697 -155.1323
660.141566 76.379 164.6162
664.925224 78.802 128.8284
669.743546 80.140 99.2112
674.596784 80.629 78.4624
679.485191 80.799 65.9380
684.409020 80.910 57.1389
689.368530 81.150 52.8152
694.363979 82.068 55.6924
699.395626 83.592 55.1821
704.463736 84.753 43.6941
709.568570 84.997 28.9111
714.710396 84.472 18.4053
719.889483 83.710 15.5073
725.106099 83.298 16.6924
730.360516 83.340 17.1853
735.653010 83.541 14.9785
740.983855 83.836 15.3633
746.353329 84.507 17.2412
751.761713 85.322 13.5239
757.209288 86.021 8.2266
762.696339 86.568 1.5193
768.223151 86.731 -8.4399
773.790013 86.336 -18.3159
779.397214 85.546 -24.4045
785.045047 85.050 -19.7144
790.733808 85.547 -11.7971
796.463791 86.099 -20.4709
802.235296 85.772 -32.3328
808.048623 84.835 -37.3623
813.904077 84.375 -31.7622
819.801961 85.587 -15.7839
825.742584 87.520 -17.1216
831.726255 88.565 -34.8831
837.753287 88.395 -53.6335
843.823992 87.406 -68.5017
849.938689 85.885 -78.4875
856.097695 84.310 -78.2056
862.301332 83.138 -84.0513
868.549922 81.643 -97.0176
874.843793 79.575 -83.3040
881.183272 78.919 -34.1870
887.568689 80.074 -33.2886
894.000378 80.997 -44.1997
900.478673 81.065 -55.4150
907.003913 80.613 -61.0352
913.576437 80.617 -58.3386
920.196588 81.540 -52.8398
926.864712 82.146 -67.8052
933.581156 81.228 -91.1362
940.346270 79.455 -76.4143
947.160407 79.314 -11.0107
954.023921 80.288 -25.0291
960.937172 80.394 -42.0410
967.900519 79.864 -42.3948
974.914325 80.193 -29.8662
981.978956 81.301 -29.7166
989.094780 82.101 -36.7825
996.262169 82.734 -35.3232
1003.481495 83.779 -35.4507
1010.753136 85.124 -39.6763
1018.077470 86.742 -45.7734
1025.454879 88.153 -59.8035
1032.885748 88.780 -81.0190
1040.370463 88.181 -105.6831
1047.909417 86.146 -123.8718
1055.503000 83.161 -118.4290
1063.151610 80.786 -102.9614
1070.855645 80.079 -99.5325
1078.615506 80.285 -100.5740
1086.431599 81.501 -88.7903
1094.304330 83.326 -90.7195
1102.234110 84.077 -113.1631
1110.221353 83.247 -136.8120
1118.266475 81.454 -156.3884
1126.369895 79.314 -162.5791
1134.532035 78.100 -76.5239
1142.753322 79.122 -81.7537
1151.034184 80.798 -97.7966
1159.375052 81.917 -118.1875
1167.776361 82.506 -139.8716
1176.238550 82.593 -167.0415
1184.762060 81.743 158.4326
1193.347334 80.152 120.0999
1201.994821 78.281 93.9136
1210.704971 76.312 85.4817
1219.478238 74.897 49.6445
1228.315080 75.912 26.7368
1237.215957 78.211 2.7090
1246.181334 79.866 -24.5525
1255.211678 80.708 -50.0630
1264.307459 80.772 -74.7234
1273.469152 80.051 -96.8025
1282.697235 79.240 -110.4717
1291.992188 79.704 -123.0796
1301.354495 80.673 -160.0913
1310.784647 80.610 122.8813
1320.283132 79.408 20.9106
1329.850448 78.524 -19.7329
1339.487093 79.335 -39.2937
1349.193569 80.500 -59.6482
1358.970381 81.297 -76.9624
1368.818041 82.001 -95.3242
1378.737061 82.425 -118.6846
1388.727958 82.224 -147.3066
1398.791253 81.415 178.3726
1408.927471 80.181 130.8645
1419.137140 78.900 49.7139
1429.420793 78.085 -27.9661
1439.778965 78.034 -69.3713
1450.212197 77.954 -101.5984
1460.721033 77.212 -116.5842
1471.306019 76.875 -117.0872
1481.967709 76.976 -137.1655
1492.706658 76.676 -165.5088
1503.523426 75.761 157.4114
1514.418576 75.336 112.0889
1525.392678 76.794 78.4841
1536.446302 79.379 56.3518
1547.580025 81.328 20.6006
1558.794428 82.449 -13.2246
1570.090095 83.135 -39.6201
1581.467615 83.833 -61.2197
1592.927581 84.555 -82.3896
1604.470591 84.794 -108.1821
1616.097246 83.876 -136.6289
1627.808153 81.599 -157.5991
1639.603922 78.857 -140.4775
1651.485168 78.293 -119.9619
1663.452510 79.669 -128.2456
1675.506573 80.971 -142.0298
1687.647984 81.200 -168.0605
1699.877377 80.319 165.7485
1712.195390 79.659 137.2349
1724.602663 79.512 79.6470
1737.099845 78.910 -23.2661
1749.687587 78.003 -73.0947
1762.366544 78.210 -82.0000
1775.137379 79.109 -116.2085
1788.000756 79.392 -135.1826
1800.957346 78.910 -94.6968
1814.007826 77.939 -107.7734
1827.152874 77.340 -122.2446
1840.393177 76.694 -144.4038
1853.729425 75.090 -157.4121
1867.162312 73.737 -136.3770
1880.692540 74.745 -106.5039
1894.320813 77.375 -98.4043
1908.047843 79.901 -111.2617
1921.874344 81.639 -131.2065
1935.801038 82.265 -155.1802
1949.828650 81.386 -177.8564
1963.957912 79.541 176.4199
1978.189561 78.748 -178.1978
1992.524338 79.652 177.0649
2006.962991 80.548 157.3550
2021.506272 80.948 151.2852
2036.154940 81.296 148.7031
2050.909758 80.994 149.7515
2065.771495 79.652 -172.2339
2080.740927 77.489 174.7764
2095.818833 75.580 177.0547
2111.006001 75.520 -143.2832
2126.303220 77.410 -125.2144
2141.711290 80.046 -113.5718
2157.231013 82.502 -124.5942
2172.863198 84.558 -142.3062
2188.608660 86.077 -163.8013
2204.468221 86.489 170.7007
2220.442706 85.664 149.8496
2236.532950 84.586 146.4878
2252.739789 84.288 146.1108
2269.064070 84.137 137.2095
2285.506644 83.378 133.5752
2302.068367 82.638 138.7866
2318.750104 82.345 131.4375
2335.552723 81.635 116.3901
2352.477101 80.052 105.5176
2369.524119 78.537 114.1514
2386.694668 79.095 151.9580
2403.989641 80.883 151.2993
2421.409941 82.144 138.0068
2438.956476 82.388 122.4521
2456.630160 81.810 109.2817
2474.431915 81.430 113.6226
2492.362668 82.730 149.8701
2510.423356 84.451 139.3916
2528.614918 85.247 119.4517
2546.938304 85.241 102.2852
2565.394469 84.531 86.2256
2583.984375 83.316 76.8979
2602.708991 81.975 72.6499
2621.569293 80.505 77.7998
2640.566265 79.866 90.4863
2659.700897 79.990 82.0688
2678.974186 79.676 67.2104
2698.387137 79.401 71.3633
2717.940763 80.726 144.5884
2737.636082 82.542 128.8364
2757.474121 83.419 106.9707
2777.455915 83.189 85.9888
2797.582506 81.945 76.0337
2817.854942 81.672 97.2539
2838.274281 83.081 101.9053
2858.841586 83.782 81.7959
2879.557931 82.977 61.5371
2900.424394 81.251 54.1758
2921.442065 80.285 79.7227
2942.612039 80.764 95.0010
2963.935418 81.173 81.2671
2985.413316 80.796 63.4316
3007.046852 79.747 63.6167
3028.837153 80.050 112.3789
3050.785356 81.881 111.9277
3072.892604 83.011 96.4771
3095.160050 83.055 86.4048
3117.588856 82.917 78.5464
3140.180190 82.705 70.1055
3162.935230 82.506 66.4897
3185.855163 82.184 58.4331
3208.941182 81.350 52.4219
3232.194493 80.361 52.6274
3255.616307 79.589 50.7754
3279.207844 79.201 57.4634
3302.970336 79.718 75.6699
3326.905021 80.556 73.2090
3351.013146 80.872 63.8271
3375.295969 80.875 57.9673
3399.754755 80.591 50.8232
3424.390779 80.148 49.2407
3449.205326 79.959 47.4404
3474.199690 79.708 41.1807
3499.375173 78.967 32.6841
3524.733088 77.605 25.7759
3550.274757 76.005 32.8828
3576.001511 75.767 60.7744
3601.914692 76.695 71.1147
3628.015651 77.468 76.5186
3654.305748 78.600 79.8252
3680.786354 79.497 69.0142
3707.458849 79.241 53.7173
3734.324624 78.159 48.9839
3761.385080 77.679 63.3491
3788.641627 78.084 67.3970
3816.095686 78.457 61.8193
3843.748688 78.756 62.5479
3871.602076 79.558 83.5044
3899.657300 80.585 82.2920
3927.915825 81.085 70.4180
3956.379122 81.231 62.8540
3985.048676 81.440 60.3760
4013.925981 81.233 54.6221
4043.012544 80.378 49.6431
4072.309879 79.449 49.0474
4101.819515 79.144 51.7256
4131.542990 79.421 49.2793
4161.481854 79.789 44.5039
4191.637667 80.728 61.1099
4222.012001 82.223 63.3398
4252.606441 82.844 43.6084
4283.422580 81.864 23.6304
4314.462026 79.830 25.1196
4345.726396 78.415 36.0249
4377.217321 77.774 31.2876
4408.936442 77.052 27.3687
4440.885413 76.459 36.4277
4473.065899 76.803 46.3569
4505.479579 77.362 39.3159
4538.128141 77.045 29.5430
4571.013288 76.484 41.6289
4604.136735 76.852 50.3525
4637.500207 76.854 37.7285
4671.105446 75.942 29.4395
4704.954201 74.946 30.7695
4739.048239 74.806 46.4448
4773.389336 75.974 73.7520
4807.979283 76.827 61.5835
4842.819883 76.626 51.4307
4877.912952 76.759 58.6592
4913.260320 77.134 51.1602
4948.863830 76.522 44.4268
4984.725337 75.645 50.2100
5020.846712 75.844 74.2295
5057.229836 77.231 79.0776
5093.876609 78.030 62.2754
5130.788938 77.968 52.4604
5167.968750 78.139 60.5581
5205.417982 78.333 49.1299
5243.138586 77.543 32.6465
5281.132530 76.438 47.9097
5319.401793 76.109 68.5801
5357.948371 76.003 71.0298
5396.774274 76.421 81.5469
5435.881525 77.106 74.7642
5475.272163 77.122 65.6899
5514.948243 76.669 63.8179
5554.911831 77.334 82.7778
5595.165012 79.327 100.2319
5635.709884 80.464 85.9966
5676.548561 80.455 76.8911
5717.683172 80.529 72.6123
5759.115861 80.377 62.1792
5800.848789 79.751 59.6245
5842.884130 79.659 66.1040
5885.224077 80.321 66.6362
5927.870837 80.916 59.9277
5970.826633 81.248 55.4229
6014.093704 81.446 50.1758
6057.674306 81.170 41.8335
6101.570711 80.427 37.8120
6145.785208 79.861 41.8857
6190.320101 79.938 45.1030
6235.177712 80.259 43.9565
6280.360380 80.543 42.7837
6325.870460 80.617 37.3638
6371.710325 80.186 32.9268
6417.882365 79.962 40.2290
6464.388986 80.315 41.2603
6511.232613 80.359 35.2632
6558.415689 80.407 34.5396
6605.940673 80.580 30.0859
6653.810042 80.480 24.0513
6702.026292 80.203 19.8452
6750.591937 79.942 17.7383
6799.509509 79.640 15.8618
6848.781558 79.615 18.9360
6898.410653 79.890 15.2559
6948.399380 79.458 3.7036
6998.750346 78.699 14.0620
7049.466176 78.342 21.3403
7100.549514 78.037 25.2124
7152.003023 77.957 24.0840
7203.829385 77.744 20.8999
7256.031302 77.516 22.8784
7308.611496 77.540 39.2036
7361.572708 78.484 50.4355
7414.917698 80.082 51.4414
7468.649249 81.371 40.0293
7522.770160 81.471 29.5278
7577.283253 81.296 40.0352
7632.191371 81.403 39.2505
7687.497376 81.698 39.8604
7743.204151 81.622 26.1807
7799.314600 80.554 17.4053
7855.831649 79.572 22.2402
7912.758244 79.695 33.3315
7970.097352 80.535 32.1997
8027.851962 80.891 19.4419
8086.025087 80.377 14.5083
8144.619758 79.997 30.3799
8203.639030 80.452 32.7305
8263.085980 81.306 30.8184
8322.963708 81.534 17.7539
8383.275334 80.968 12.8691
8444.024002 81.004 19.8047
8505.212881 81.664 22.9038
8566.845160 81.857 12.7368
8628.924051 81.369 2.1328
8691.452792 80.667 -2.1167
8754.434642 80.390 -1.2212
8817.872884 80.540 7.1221
8881.770826 80.749 5.5464
8946.131799 80.494 0.4326
9010.959157 80.096 -0.8232
9076.256282 79.823 2.3599
9142.026576 79.763 -1.7778
9208.273470 79.413 -9.7329
9275.000415 78.611 -15.8311
9342.210891 77.729 -15.7417
9409.908403 77.382 -5.0640
9478.096478 77.038 -10.4087
9546.778672 76.133 -13.6187
9615.958566 75.773 3.7583
9685.639765 76.344 14.3945
9755.825904 76.643 5.7852
9826.520640 76.351 0.8472
9897.727659 76.521 16.2998
9969.450674 77.813 27.2754
10041.693423 78.442 17.3301
10114.459673 78.498 22.0439
10187.753217 79.297 34.8926
10261.577877 79.987 26.2266
10335.937500 79.708 13.5635
10410.835964 79.264 14.6465
10486.277173 79.644 20.7100
10562.265060 80.018 10.9692
10638.803587 79.410 1.6172
10715.896743 78.667 4.6787
10793.548548 78.668 5.8623
10871.763050 78.714 -0.7217
10950.544327 78.327 -5.3984
11029.896485 78.081 -1.1064
11109.823662 78.333 1.3960
11190.330024 78.454 -4.5610
11271.419768 78.230 -7.5317
11353.097122 77.888 -6.8169
11435.366344 77.572 -9.0679
11518.231722 77.185 -13.9297
11601.697577 76.927 -12.8291
11685.768261 77.056 -9.8105
11770.448155 76.782 -16.1147
11855.741674 76.026 -17.3198
11941.653265 75.598 -12.1255
12028.187408 75.413 -16.1079
12115.348612 74.901 -20.4062
12203.141422 74.310 -9.3628
12291.570415 73.919 -1.1250
12380.640201 73.804 4.0337
12470.355424 74.371 13.9775
12560.720760 75.146 11.4102
12651.740920 75.320 7.5088
12743.420650 75.409 18.2715
12835.764729 75.722 23.7354
12928.777972 76.411 24.7471
13022.465227 77.664 26.8877
13116.831378 78.950 23.1411
13211.881345 79.621 14.9214
13307.620084 79.935 11.9346
13404.052584 80.325 7.2666
13501.183875 80.514 -2.5039
13599.019019 80.351 -10.5107
13697.563116 80.014 -16.6963
13796.821305 79.296 -25.5020
13896.798760 78.037 -27.8462
13997.500692 76.998 -22.0542
14098.932352 76.569 -19.8540
14201.099028 76.649 -15.9263
14304.006046 77.128 -16.4355
14407.658770 77.430 -20.2773
14512.062604 77.587 -21.2549
14617.222992 77.696 -26.1670
14723.145416 77.510 -31.5903
14829.835397 77.185 -34.2642
14937.298497 76.889 -38.8291
15045.540320 76.482 -43.5913
15154.566507 76.128 -47.3813
15264.382743 75.666 -53.8032
15374.994752 75.039 -57.9111
15486.408302 74.478 -63.9067
15598.629201 73.473 -74.1855
15711.663298 71.855 -80.0112
15825.516487 69.985 -83.2432
15940.194703 68.066 -76.6426
16055.703925 67.100 -57.7778
16172.050174 66.962 -44.7441
16289.239516 67.285 -28.0879
16407.278061 67.633 -25.9731
16526.171961 67.764 -9.3794
16645.927415 68.048 4.0488
16766.550667 68.970 14.8735
16888.048005 70.130 8.7993
17010.425762 70.809 1.7988
17133.690320 71.231 -3.5776
17257.848103 71.166 -11.1973
17382.905584 70.763 -14.1118
17508.869284 70.481 -15.9023
17635.745768 70.529 -15.4775
17763.541652 70.778 -16.3071
17892.263597 70.820 -15.6924
18021.918315 70.828 -15.5190
18152.512564 71.084 -16.9458
18284.053153 71.289 -20.4575
18416.546939 71.002 -23.8599
18550.000830 70.508 -26.7344
18684.421783 70.034 -30.6191
18819.816805 69.600 -34.1357
18956.192956 69.110 -37.9824
19093.557344 68.484 -40.9785
19231.917131 67.560 -44.0903
19371.279531 66.462 -44.9946
19511.651807 65.632 -46.3145
19653.041280 64.829 -50.8164
19795.455318 63.590 -57.0757
19938.901348 62.188 -62.2480
