* Measurement data measured by REW V5.31.1
* Source: Scarlett 2i4 USB, MICROPHONE, R, volume: no control
* Format: 512k Log Swept Sine, 1 sweep at -18.0 dBFS with no timing reference
* Dated: May 16, 2024 7:06:15 AM
* REW Settings:
*  C-weighting compensation: Off
*  Target level: 75.0 dB
* Note: ; 
* Measurement: bns-back12-p1-rr
* Smoothing: 1/48 octave
* Frequency Step: 96 ppo
* Start Frequency: 10.093689 Hz
*
* Freq(Hz) SPL(dB) Phase(degrees)
10.093689 39.895 -173.7831
10.166832 39.263 -173.0315
10.240505 38.483 -171.6320
10.314712 37.673 -169.2742
10.389457 36.866 -165.5265
10.464743 36.124 -159.8300
10.540575 35.469 -151.3753
10.616956 34.936 -140.0287
10.693891 34.661 -126.9436
10.771383 34.813 -114.5028
10.849437 35.509 -104.0788
10.928057 36.613 -96.0932
11.007246 37.855 -90.4759
11.087009 38.989 -86.7160
11.167350 39.926 -84.3655
11.248273 40.766 -83.0353
11.329783 41.523 -82.2786
11.411883 42.185 -81.7691
11.494578 42.736 -81.3939
11.577873 43.178 -81.3187
11.661771 43.534 -81.2952
11.746277 43.834 -81.0807
11.831395 44.087 -80.5502
11.917130 44.277 -79.8761
12.003487 44.433 -78.9996
12.090469 44.594 -77.8495
12.178081 44.777 -76.3454
12.266329 44.969 -74.5050
12.355216 45.188 -72.5473
12.444747 45.458 -70.7136
12.534926 45.794 -68.9541
12.625760 46.184 -67.2379
12.717251 46.601 -65.8875
12.809406 47.025 -65.1488
12.902228 47.466 -64.8460
12.995723 47.907 -64.9277
13.089895 48.313 -65.4608
13.184750 48.666 -66.5213
13.280292 48.973 -68.0584
13.376526 49.219 -69.8908
13.473458 49.387 -71.8987
13.571093 49.475 -74.3266
13.669434 49.478 -77.0861
13.768489 49.383 -79.8638
13.868261 49.181 -82.6247
13.968756 48.873 -85.7362
14.069979 48.435 -88.8591
14.171936 47.846 -91.5843
14.274632 47.112 -94.2626
14.378072 46.196 -96.7660
14.482261 45.027 -98.4828
14.587206 43.499 -98.9030
14.692910 41.758 -97.5362
14.799381 40.119 -93.1239
14.906624 38.704 -82.5587
15.014643 37.596 -62.9873
15.123446 37.232 -41.1762
15.233036 38.023 -26.6660
15.343421 39.595 -19.3195
15.454606 41.111 -16.6100
15.566596 42.131 -16.9587
15.679398 42.825 -19.4556
15.793018 43.224 -22.4714
15.907460 43.331 -25.9603
16.022732 43.131 -30.6520
16.138840 42.560 -35.0991
16.255788 41.558 -39.1689
16.373585 40.153 -43.9131
16.492234 38.387 -47.2790
16.611744 35.984 -46.6931
16.732119 33.663 -28.6937
16.853367 33.545 63.6004
16.975494 36.265 81.5779
17.098505 39.601 81.4361
17.222408 42.091 77.1430
17.347209 43.893 71.1433
17.472914 45.292 64.9971
17.599530 46.382 58.2707
17.727063 47.166 50.8371
17.855521 47.730 43.7419
17.984909 48.093 35.9605
18.115235 48.264 27.8769
18.246506 48.268 20.1394
18.378727 48.101 11.5705
18.511907 47.771 3.1757
18.646052 47.281 -5.2925
18.781169 46.624 -14.3058
18.917265 45.795 -22.7039
19.054347 44.791 -31.3438
19.192423 43.586 -39.6099
19.331499 42.149 -46.5158
19.471583 40.537 -52.2774
19.612682 38.777 -54.9546
19.754804 37.047 -52.1625
19.897956 36.193 -45.5338
20.042144 36.573 -35.3646
20.187378 37.704 -29.3764
20.333664 39.257 -29.5532
20.481010 40.907 -32.8860
20.629424 42.245 -39.0372
20.778913 43.302 -46.6935
20.929486 44.086 -54.5559
21.081150 44.592 -63.6248
21.233912 44.814 -72.1133
21.387782 44.745 -81.3703
21.542767 44.328 -90.2476
21.698874 43.535 -99.1491
21.856113 42.224 -108.3011
22.014492 40.116 -116.5183
22.174018 37.766 -125.5928
22.334700 36.296 -130.1008
22.496546 36.357 33.4899
22.659566 38.412 26.6645
22.823766 41.254 18.7643
22.989157 43.280 11.2825
23.155745 44.569 3.4114
23.323542 45.325 -3.2253
23.492554 45.569 -9.9464
23.662790 45.331 -14.6788
23.834261 44.615 -18.2289
24.006973 43.420 -17.5545
24.180938 42.081 -10.7095
24.356163 41.536 6.3589
24.532658 42.065 29.0966
24.710431 43.683 43.1940
24.889493 45.637 49.3003
25.069853 47.144 50.2875
25.251519 48.234 49.8308
25.434502 48.894 48.9184
25.618811 49.259 49.4495
25.804456 49.449 52.0864
25.991445 49.826 57.6779
26.179790 50.577 65.6375
26.369500 51.854 72.7922
26.560584 53.486 77.4880
26.753053 55.159 78.4100
26.946917 56.728 76.6535
27.142185 58.075 72.7186
27.338869 59.183 67.5584
27.536977 60.050 61.4006
27.736522 60.688 54.8903
27.937512 61.112 48.1615
28.139959 61.340 41.4602
28.343872 61.398 35.1889
28.549264 61.313 29.3008
28.756143 61.135 24.2607
28.964522 60.915 19.9150
29.174411 60.714 16.4574
29.385821 60.598 13.4256
29.598763 60.594 10.6613
29.813248 60.701 7.5590
30.029287 60.873 3.8945
30.246891 61.062 -0.4564
30.466073 61.200 -5.4316
30.686842 61.251 -10.6763
30.909212 61.189 -16.0582
31.133193 61.009 -20.9389
31.358797 60.733 -25.0526
31.586035 60.403 -27.9903
31.814921 60.110 -29.4150
32.045465 59.957 -29.5461
32.277680 60.024 -28.6850
32.511577 60.342 -27.8995
32.747169 60.839 -27.9611
32.984469 61.422 -29.1804
33.223488 61.981 -31.7058
33.464239 62.440 -35.1995
33.706735 62.757 -39.3451
33.950987 62.903 -43.9103
34.197010 62.862 -48.4342
34.444816 62.632 -52.5814
34.694417 62.218 -56.0420
34.945827 61.643 -58.3086
35.199059 60.970 -58.8398
35.454126 60.316 -57.3701
35.711041 59.819 -53.9484
35.969818 59.616 -49.4065
36.230470 59.726 -45.3658
36.493011 60.026 -42.8069
36.757455 60.371 -41.8932
37.023814 60.642 -42.3016
37.292104 60.778 -43.4087
37.562338 60.782 -44.5833
37.834530 60.686 -45.4925
38.108695 60.534 -45.9896
38.384846 60.361 -46.1048
38.662999 60.178 -46.0216
38.943167 59.966 -45.8409
39.225365 59.695 -45.3706
39.509608 59.363 -44.2121
39.795911 59.014 -41.8986
40.084289 58.739 -38.1341
40.374756 58.648 -33.1543
40.667328 58.803 -27.8020
40.962020 59.165 -22.8654
41.258848 59.664 -18.5369
41.557827 60.270 -14.6265
41.858972 60.995 -11.0397
42.162299 61.855 -8.0601
42.467824 62.821 -6.2244
42.775564 63.812 -5.9228
43.085533 64.730 -7.1325
43.397749 65.507 -9.4658
43.712227 66.117 -12.3704
44.028983 66.572 -15.3338
44.348036 66.915 -18.0245
44.669400 67.196 -20.3645
44.993093 67.451 -22.5182
45.319131 67.685 -24.7645
45.647532 67.870 -27.3034
45.978313 67.968 -30.1235
46.311491 67.950 -32.9991
46.647083 67.812 -35.5910
46.985107 67.581 -37.5933
47.325581 67.305 -38.8855
47.668521 67.028 -39.6125
48.013947 66.764 -40.0967
48.361876 66.488 -40.5911
48.712326 66.156 -41.0568
49.065315 65.738 -41.1301
49.420863 65.250 -40.2888
49.778987 64.758 -38.1594
50.139706 64.350 -34.8427
50.503039 64.076 -30.9364
50.869005 63.910 -27.0287
51.237623 63.793 -23.0581
51.608912 63.725 -18.1972
51.982891 63.845 -11.4621
52.359580 64.385 -3.0480
52.739000 65.440 4.7545
53.121168 66.826 9.3325
53.506106 68.252 9.9932
53.893833 69.509 7.5437
54.284370 70.496 3.0982
54.677737 71.184 -2.3530
55.073955 71.582 -7.9923
55.473043 71.731 -13.1546
55.875024 71.694 -17.3511
56.279917 71.549 -20.3434
56.687745 71.377 -22.1955
57.098527 71.232 -23.2648
57.512287 71.124 -23.9802
57.929045 71.034 -24.5991
58.348822 70.936 -25.1728
58.771642 70.810 -25.6606
59.197525 70.643 -26.0096
59.626495 70.416 -26.1157
60.058573 70.121 -25.7325
60.493782 69.774 -24.4555
60.932145 69.430 -21.9233
61.373685 69.176 -18.0984
61.818424 69.086 -13.4082
62.266386 69.187 -8.5317
62.717593 69.455 -4.0213
63.172071 69.840 -0.2034
63.629842 70.283 2.8182
64.090930 70.736 5.1710
64.555359 71.178 7.1650
65.023154 71.622 9.0589
65.494339 72.087 10.8207
65.968938 72.570 12.1717
66.446976 73.037 12.9479
66.928478 73.450 13.3289
67.413469 73.806 13.6927
67.901975 74.130 14.2422
68.394021 74.443 14.8312
68.889632 74.727 15.2045
69.388835 74.938 15.4142
69.891655 75.055 15.9386
70.398118 75.113 17.4518
70.908252 75.201 20.3140
71.422083 75.421 24.3932
71.939636 75.848 29.2641
72.460941 76.528 34.4011
72.986023 77.461 39.0186
73.514909 78.567 42.1384
74.047629 79.718 43.3334
74.584208 80.814 43.0181
75.124676 81.842 42.0404
75.669061 82.857 40.9386
76.217390 83.920 39.5701
76.769692 85.030 37.2618
77.325997 86.117 33.4579
77.886333 87.087 28.0647
78.450730 87.871 21.4467
79.019216 88.431 14.1176
79.591822 88.764 6.6471
80.168577 88.890 -0.4926
80.749512 88.852 -6.9358
81.334656 88.710 -12.4550
81.924040 88.530 -17.1019
82.517696 88.360 -21.2798
83.115653 88.189 -25.5999
83.717943 87.947 -30.4327
84.324598 87.542 -35.4671
84.935649 86.931 -39.8068
85.551128 86.162 -42.4230
86.171066 85.363 -42.7925
86.795497 84.682 -41.4106
87.424453 84.184 -39.4242
88.057967 83.831 -37.5611
88.696071 83.559 -35.6784
89.338800 83.370 -33.1661
89.986185 83.348 -29.6988
90.638262 83.595 -25.8501
91.295065 84.122 -22.9716
91.956626 84.812 -22.3074
92.622982 85.485 -24.2140
93.294166 85.998 -28.0839
93.970214 86.299 -32.8176
94.651161 86.429 -37.4756
95.337042 86.479 -41.8153
96.027894 86.509 -46.3321
96.723752 86.507 -51.6734
97.424652 86.411 -58.0581
98.130631 86.165 -65.2609
98.841726 85.750 -72.9387
99.557974 85.170 -80.9018
100.279412 84.443 -89.1348
101.006078 83.593 -97.6366
101.738010 82.673 -106.4576
102.475245 81.781 -116.1048
103.217823 81.008 -127.5922
103.965782 80.404 -141.5590
104.719161 80.028 -157.5356
105.477999 79.993 -174.2411
106.242336 80.372 169.6401
107.012212 81.093 154.9136
107.787666 81.989 141.7698
108.568740 82.891 130.0314
109.355474 83.686 119.6261
110.147909 84.335 110.7129
110.946086 84.862 103.3915
111.750047 85.307 97.5219
112.559834 85.707 92.8378
113.375489 86.085 89.0645
114.197055 86.457 85.9326
115.024574 86.821 83.1210
115.858089 87.150 80.3233
116.697645 87.407 77.5216
117.543284 87.568 74.9689
118.395051 87.629 72.8832
119.252990 87.596 71.4816
120.117147 87.494 71.2188
120.987565 87.398 72.5320
121.864291 87.422 75.5164
122.747370 87.705 80.1052
123.636848 88.361 85.3627
124.532771 89.350 89.2802
125.435187 90.483 90.4527
126.344142 91.550 88.8009
127.259684 92.433 85.3694
128.181860 93.120 81.2836
129.110718 93.633 76.8396
130.046308 93.967 72.0677
130.988677 94.111 67.3412
131.937875 94.081 63.1052
132.893951 93.903 59.6318
133.856956 93.603 57.0318
134.826938 93.206 55.6197
135.803950 92.781 56.0295
136.788041 92.457 58.4726
137.779264 92.357 62.1803
138.777669 92.516 65.9198
139.783309 92.911 69.2908
140.796237 93.535 72.3245
141.816504 94.335 73.8170
142.844165 95.151 72.6838
143.879273 95.825 69.4454
144.921881 96.285 65.0733
145.972045 96.518 60.3516
147.029819 96.550 55.9091
148.095257 96.429 52.0773
149.168417 96.201 48.9066
150.249353 95.888 46.1063
151.338121 95.473 43.6023
152.434780 94.936 41.7407
153.539385 94.281 40.9830
154.651995 93.575 42.4587
155.772667 93.020 47.0370
156.901460 92.837 53.1582
158.038432 93.020 57.8477
159.183644 93.363 60.1436
160.337154 93.692 60.8956
161.499023 93.962 61.2302
162.669312 94.211 61.6163
163.848081 94.447 61.2736
165.035392 94.605 59.9434
166.231306 94.647 58.3819
167.435887 94.588 57.0325
168.649196 94.462 56.0487
169.871298 94.311 55.4993
171.102255 94.157 54.9843
172.342133 93.950 53.7103
173.590995 93.575 51.7470
174.848907 92.978 50.8056
176.115934 92.265 52.5778
177.392143 91.638 56.8778
178.677599 91.273 62.7718
179.972371 91.261 69.0848
181.276525 91.534 73.7700
182.590129 91.908 76.1688
183.913252 92.242 77.2284
185.245964 92.512 77.8971
186.588332 92.759 78.6100
187.940428 93.053 79.4654
189.302322 93.433 79.7827
190.674085 93.839 78.3687
192.055788 94.116 74.5645
193.447503 94.104 69.0518
194.849303 93.748 63.7071
196.261262 93.137 60.0911
197.683452 92.422 57.9501
199.115948 91.659 55.7293
200.558824 90.756 52.7174
202.012156 89.565 49.5330
203.476019 87.970 47.7704
204.950490 86.003 51.0236
206.435646 84.206 67.2799
207.931564 83.857 96.7810
209.438322 84.997 111.0239
210.955998 86.201 109.8710
212.484672 86.765 103.5658
214.024424 86.596 96.5514
215.575333 85.731 90.5367
217.137481 84.199 87.3275
218.710948 82.153 91.7533
220.295818 80.352 114.5577
221.892172 80.219 146.6660
223.500094 81.683 162.9226
225.119668 83.566 170.0116
226.750978 85.258 170.7508
228.394109 86.471 165.9556
230.049147 87.066 158.0621
231.716178 87.019 149.5132
233.395289 86.358 141.6476
235.086567 85.074 134.9533
236.790102 83.158 131.9091
238.505980 81.109 144.7297
240.234293 80.787 -166.7131
241.975130 82.599 -146.3048
243.728581 84.524 -149.0489
245.494739 85.681 -158.3993
247.273695 85.975 -169.4431
249.065542 85.472 179.8177
250.870374 84.236 169.5904
252.688284 82.374 158.7507
254.519367 80.667 142.9787
256.363720 81.260 -29.5713
258.221437 83.744 -53.7221
260.092616 85.933 -70.0893
261.977354 87.263 -84.1224
263.875750 87.835 -95.0784
265.787903 87.833 -102.9733
267.713911 87.367 -108.2194
269.653877 86.578 -108.9631
271.607900 85.883 -101.9148
273.576083 85.853 -89.9434
275.558528 86.476 -82.0226
277.555338 87.226 -79.6396
279.566619 87.810 -79.0952
281.592474 88.311 -77.1619
283.633009 88.939 -73.8087
285.688331 89.658 -72.9696
287.758546 90.209 -75.8118
289.843763 90.464 -79.4206
291.944090 90.494 -82.2104
294.059638 90.384 -84.6654
296.190515 90.122 -87.7331
298.336833 89.614 -91.4960
300.498705 88.790 -94.5052
302.676243 87.718 -94.7488
304.869559 86.618 -91.6543
307.078770 85.654 -88.7050
309.303989 84.619 -90.0929
311.545334 83.067 -94.0068
313.802919 80.834 -92.7327
316.076865 78.969 -53.7449
318.367288 79.859 9.7896
320.674309 82.523 22.9771
322.998047 85.027 23.6276
325.338624 86.949 19.6842
327.696162 88.290 13.5411
330.070783 89.084 6.3693
332.462612 89.370 -0.7533
334.871773 89.217 -6.6052
337.298392 88.779 -9.6266
339.742595 88.307 -9.4195
342.204510 87.980 -8.4946
344.684265 87.721 -9.4371
347.181989 87.306 -12.3595
349.697813 86.593 -15.1818
352.231868 85.652 -15.3013
354.784285 84.658 -14.1970
357.355198 83.542 -15.5140
359.944741 82.037 -16.8608
362.553049 80.235 -9.0020
365.180258 79.067 13.6868
367.826505 79.195 27.9152
370.491927 79.599 25.8304
373.176665 79.307 17.8827
375.880856 78.217 12.2876
378.604644 76.607 7.3732
381.348169 74.556 -2.1542
384.111575 72.240 -18.8516
386.895006 71.217 -61.6116
389.698607 72.939 -116.5847
392.522524 75.374 -144.1295
395.366904 77.057 -162.6943
398.231895 77.846 -175.4261
401.117648 78.128 -179.9819
404.024312 78.469 -177.2479
406.952038 79.111 -173.7962
409.900981 79.848 -173.0558
412.871292 80.340 -176.1301
415.863128 80.273 177.7940
418.876643 79.471 172.0625
421.911996 77.969 170.5648
424.969344 76.254 179.4893
428.048847 75.841 -142.4548
431.150666 77.357 -113.8783
434.274961 78.956 -115.3233
437.421897 79.671 -122.4199
440.591636 79.614 -126.0751
443.784345 79.329 -122.2565
447.000189 79.454 -112.9952
450.239337 79.938 -109.6857
453.501956 80.087 -114.1372
456.788219 79.499 -119.1295
460.098294 78.336 -117.5760
463.432356 77.189 -107.5841
466.790578 76.523 -98.1727
470.173135 76.052 -94.9126
473.580203 75.271 -93.8312
477.011961 74.033 -89.6422
480.468586 72.736 -75.8568
483.950259 72.296 -52.8365
487.457163 72.966 -37.1793
490.989478 73.879 -33.1201
494.547390 74.352 -35.4714
498.131084 74.139 -40.3660
501.740748 73.340 -42.8626
505.376568 72.251 -44.0102
509.038735 70.863 -50.1684
512.727439 68.742 -59.8024
516.442874 65.598 -63.0006
520.185232 61.854 -57.3893
523.954708 60.027 -73.7713
527.751500 63.035 -110.4823
531.575805 67.609 -105.2430
535.427822 71.475 -117.3928
539.307753 74.216 -137.7137
543.215800 75.922 -156.0546
547.152165 76.774 -170.9031
551.117055 77.057 179.1419
555.110677 77.210 174.4101
559.133237 77.371 167.9744
563.184947 76.986 153.5408
567.266018 75.447 136.3799
571.376661 72.689 121.7101
575.517092 69.431 92.2302
579.687526 67.962 -20.2922
583.888181 69.689 -43.3030
588.119275 72.913 -40.1907
592.381030 76.502 -28.0143
596.673667 79.630 -27.3727
600.997410 81.763 -39.8746
605.352485 82.807 -55.9963
609.739119 82.806 -72.3491
614.157540 81.716 -87.1038
618.607979 79.667 -90.5677
623.090667 77.888 -54.6550
627.605839 78.159 -29.3313
632.153730 79.389 -28.5873
636.734576 80.244 -33.1069
641.348617 80.684 -36.3492
645.996094 81.036 -38.3583
650.677248 81.353 -43.6447
655.392323 81.260 -55.1648
660.141566 80.405 -68.8066
664.925224 78.937 -78.1213
669.743546 77.708 -81.0623
674.596784 77.585 -88.7377
679.485191 77.928 -109.3955
684.409020 77.597 -137.8406
689.368530 76.101 -162.8381
694.363979 74.064 -161.3586
699.395626 73.380 -142.4353
704.463736 73.586 -155.2627
709.568570 73.087 -177.1392
714.710396 73.178 176.1951
719.889483 75.726 -38.2852
725.106099 78.728 -53.5481
730.360516 80.948 -68.1034
735.653010 82.385 -80.6350
740.983855 83.103 -92.3543
746.353329 83.240 -101.2108
751.761713 83.058 -107.3058
757.209288 82.457 -115.8826
762.696339 81.111 -123.5287
768.223151 79.041 -124.9524
773.790013 76.887 -108.5287
779.397214 76.288 -75.1843
785.045047 77.211 -66.5119
790.733808 77.959 -72.2466
796.463791 77.989 -80.9424
802.235296 77.284 -92.2009
808.048623 75.758 -106.1636
813.904077 73.478 -122.8770
819.801961 71.406 -142.9534
825.742584 71.578 13.4421
831.726255 73.141 -10.2169
837.753287 74.916 -26.8209
843.823992 77.057 -38.1998
849.938689 79.164 -54.2020
856.097695 80.632 -75.7249
862.301332 81.146 -98.7744
868.549922 80.783 -117.5792
874.843793 80.048 -128.9883
881.183272 79.276 -140.2632
887.568689 77.932 -154.4187
894.000378 75.621 -158.7974
900.478673 72.963 -150.6093
907.003913 70.845 -147.4453
913.576437 69.806 -130.9594
920.196588 70.599 -92.2935
926.864712 72.083 -103.2729
933.581156 73.660 -120.5513
940.346270 75.963 -135.1140
947.160407 78.451 -156.2556
954.023921 80.215 175.9618
960.937172 80.912 147.1272
967.900519 80.400 120.2566
974.914325 78.613 100.2622
981.978956 75.852 89.7568
989.094780 72.490 84.4094
996.262169 68.962 131.4277
1003.481495 67.562 -155.2019
1010.753136 68.845 -143.1339
1018.077470 69.810 -147.9973
1025.454879 69.924 -134.6862
1032.885748 69.934 -122.6064
1040.370463 69.609 -132.0856
1047.909417 69.633 -154.3098
1055.503000 71.140 100.8368
1063.151610 73.248 41.3049
1070.855645 74.826 16.0468
1078.615506 75.502 -3.2360
1086.431599 75.296 -25.8212
1094.304330 74.064 -64.1415
1102.234110 72.676 -173.1469
1110.221353 72.322 132.5781
1118.266475 72.033 114.0933
1126.369895 71.063 115.6147
1134.532035 70.398 139.7797
1142.753322 71.068 169.4242
1151.034184 72.347 -176.5338
1159.375052 73.368 -167.3058
1167.776361 74.056 -158.5359
1176.238550 73.968 -158.9027
1184.762060 72.843 -157.1180
1193.347334 71.517 -123.7336
1201.994821 71.904 -79.7670
1210.704971 73.194 -70.7235
1219.478238 73.276 -81.1472
1228.315080 71.635 -90.9277
1237.215957 69.006 -74.9373
1246.181334 66.887 14.8002
1255.211678 66.156 29.3591
1264.307459 66.335 39.0332
1273.469152 66.563 77.8853
1282.697235 67.283 131.5366
1291.992188 68.807 -151.6898
1301.354495 70.521 -137.0354
1310.784647 71.322 -145.6104
1320.283132 70.983 -146.6279
1329.850448 70.355 -125.3599
1339.487093 71.114 -75.3729
1349.193569 73.069 -53.9058
1358.970381 75.059 -41.9954
1368.818041 76.374 -40.6309
1378.737061 76.420 -48.1877
1388.727958 75.157 -55.1905
1398.791253 73.241 -67.6930
1408.927471 71.643 -115.4407
1419.137140 71.498 -175.1591
1429.420793 72.202 166.6298
1439.778965 72.716 167.5771
1450.212197 73.372 -170.2563
1460.721033 74.960 -140.0762
1471.306019 77.135 -115.4734
1481.967709 79.081 -101.5469
1492.706658 79.951 -100.6484
1503.523426 79.806 -96.0389
1514.418576 79.069 -87.3459
1525.392678 77.776 -80.4288
1536.446302 75.660 -72.0306
1547.580025 73.309 -55.4941
1558.794428 72.767 82.7333
1570.090095 74.182 100.3582
1581.467615 75.466 106.0676
1592.927581 76.913 139.0956
1604.470591 78.198 147.7775
1616.097246 77.930 140.3927
1627.808153 76.132 149.8317
1639.603922 75.214 -107.2498
1651.485168 76.526 -79.4729
1663.452510 77.685 -73.9368
1675.506573 77.650 -67.1390
1687.647984 77.365 -27.6171
1699.877377 77.814 1.4689
1712.195390 77.983 11.4673
1724.602663 77.324 24.4476
1737.099845 76.393 46.9390
1749.687587 76.186 65.6747
1762.366544 77.264 176.9883
1775.137379 78.529 -178.6626
1788.000756 78.397 174.6068
1800.957346 76.807 -178.7005
1814.007826 75.347 -104.0971
1827.152874 76.006 -52.7485
1840.393177 77.671 -34.2712
1853.729425 79.107 -11.5624
1867.162312 79.975 3.0842
1880.692540 79.481 -3.1492
1894.320813 77.292 -8.0890
1908.047843 74.909 151.6088
1921.874344 75.470 -174.4377
1935.801038 77.174 -166.5114
1949.828650 77.481 -166.6762
1963.957912 76.727 -145.1419
1978.189561 77.205 -60.2307
1992.524338 78.674 -42.7629
2006.962991 79.099 -41.8416
2021.506272 78.343 -20.7700
2036.154940 77.487 32.7256
2050.909758 76.682 54.9812
2065.771495 76.318 102.2172
2080.740927 76.777 128.6526
2095.818833 77.760 -173.1780
2111.006001 78.916 -130.0729
2126.303220 79.289 -125.5684
2141.711290 78.586 -113.9332
2157.231013 77.263 -87.0314
2172.863198 75.495 -75.8407
2188.608660 73.945 43.3085
2204.468221 74.009 90.7167
2220.442706 74.261 100.2226
2236.532950 74.825 145.4675
2252.739789 76.719 -148.2323
2269.064070 78.575 -127.5992
2285.506644 78.977 -124.5875
2302.068367 78.107 -95.9636
2318.750104 77.397 -34.6354
2335.552723 77.110 -10.0143
2352.477101 76.549 11.1809
2369.524119 75.644 39.5139
2386.694668 75.615 132.2255
2403.989641 76.262 156.9264
2421.409941 76.085 166.1573
2438.956476 75.404 -160.5027
2456.630160 75.716 -61.4990
2474.431915 76.477 -45.3859
2492.362668 76.223 -37.1637
2510.423356 74.550 -23.9375
2528.614918 72.913 36.4525
2546.938304 73.501 146.5541
2565.394469 75.028 -162.9077
2583.984375 75.724 -142.3423
2602.708991 76.098 -100.6106
2621.569293 76.072 -90.2399
2640.566265 74.776 -90.0106
2659.700897 72.369 -51.7631
2678.974186 71.272 -38.5502
2698.387137 72.815 -144.7332
2717.940763 75.122 -135.9569
2737.636082 76.928 -117.2494
2757.474121 77.652 -100.0851
2777.455915 76.881 -87.5375
2797.582506 75.057 -43.3527
2817.854942 74.338 38.3794
2838.274281 75.744 112.8936
2858.841586 77.367 132.4551
2879.557931 77.509 144.2532
2900.424394 76.560 -162.4468
2921.442065 75.747 -143.5935
2942.612039 75.959 -19.5061
2963.935418 76.499 0.1294
2985.413316 75.732 0.9460
3007.046852 74.406 88.2520
3028.837153 73.325 91.8391
3050.785356 71.954 75.3020
3072.892604 71.208 36.8164
3095.160050 71.793 25.7839
3117.588856 72.129 32.5715
3140.180190 72.225 63.7402
3162.935230 72.531 117.0759
3185.855163 72.689 123.3323
3208.941182 73.506 79.6914
3232.194493 74.813 27.5996
3255.616307 74.845 13.5981
3279.207844 73.485 43.9041
3302.970336 73.128 121.6099
3326.905021 74.511 173.6763
3351.013146 75.323 169.8765
3375.295969 75.482 5.2161
3399.754755 75.963 -9.7227
3424.390779 75.752 19.1089
3449.205326 75.106 106.0769
3474.199690 75.354 166.6174
3499.375173 76.450 -118.6702
3524.733088 77.081 -101.7915
3550.274757 77.226 -88.6763
3576.001511 77.555 53.7542
3601.914692 77.553 59.1902
3628.015651 77.221 152.8076
3654.305748 77.473 -143.5642
3680.786354 78.124 -63.4634
3707.458849 78.643 -9.3916
3734.324624 78.452 11.5823
3761.385080 77.838 61.1926
3788.641627 77.517 128.5608
3816.095686 77.700 172.4297
3843.748688 77.763 145.0693
3871.602076 78.352 30.5652
3899.657300 79.329 42.8132
3927.915825 79.766 60.3960
3956.379122 78.765 55.3447
3985.048676 77.023 26.8257
4013.925981 77.032 6.0295
4043.012544 78.041 15.1436
4072.309879 78.586 37.9143
4101.819515 79.030 45.3191
4131.542990 79.235 10.5991
4161.481854 78.989 -16.9788
4191.637667 79.040 21.0425
4222.012001 78.961 19.4558
4252.606441 78.071 -16.4114
4283.422580 77.363 -64.0242
4314.462026 77.524 -57.7869
4345.726396 78.046 -21.5667
4377.217321 77.924 -10.1003
4408.936442 76.933 -8.4370
4440.885413 76.906 5.0989
4473.065899 77.662 -21.5674
4505.479579 77.552 -25.8955
4538.128141 76.631 -1.3953
4571.013288 76.129 19.1648
4604.136735 76.385 -27.9409
4637.500207 77.049 -27.8784
4671.105446 77.473 -13.3442
4704.954201 77.184 -1.7349
4739.048239 77.363 -2.4243
4773.389336 78.637 -12.0439
4807.979283 79.786 -11.8037
4842.819883 80.172 -13.7900
4877.912952 79.627 -33.6912
4913.260320 78.554 -49.0791
4948.863830 78.273 -34.3674
4984.725337 78.665 -28.6265
5020.846712 78.988 -43.2229
5057.229836 78.947 -71.4761
5093.876609 78.255 -82.6567
5130.788938 77.576 -62.1646
5167.968750 77.944 -41.8984
5205.417982 78.898 -44.8220
5243.138586 79.373 -49.7324
5281.132530 79.338 -52.0571
5319.401793 78.897 -53.2380
5357.948371 78.709 -49.6814
5396.774274 78.787 -57.7148
5435.881525 78.645 -71.2109
5475.272163 78.748 -77.7571
5514.948243 78.330 -82.0801
5554.911831 76.473 -80.5886
5595.165012 74.632 -84.1597
5635.709884 75.214 -81.2651
5676.548561 76.074 -78.3765
5717.683172 75.744 -50.2478
5759.115861 75.563 -76.0505
5800.848789 75.979 -138.9861
5842.884130 76.510 -71.3977
5885.224077 76.932 -13.0908
5927.870837 77.013 121.9124
5970.826633 76.850 103.1985
6014.093704 77.036 -16.6497
6057.674306 77.190 48.5251
6101.570711 77.350 125.4077
6145.785208 77.757 -115.2666
6190.320101 77.802 5.5947
6235.177712 77.258 27.5042
6280.360380 77.354 -12.1968
6325.870460 78.541 -19.7595
6371.710325 78.892 -7.5574
6417.882365 78.748 -5.1736
6464.388986 79.643 -33.0315
6511.232613 80.072 -38.5474
6558.415689 79.027 -8.0857
6605.940673 78.161 -21.4846
6653.810042 78.735 -22.9949
6702.026292 79.323 -22.3977
6750.591937 79.177 -48.5193
6799.509509 78.883 -44.7822
6848.781558 78.431 -20.5027
6898.410653 77.083 -23.8281
6948.399380 76.137 -33.6802
6998.750346 76.098 -17.7727
7049.466176 76.825 3.8320
7100.549514 78.023 -10.5593
7152.003023 78.226 -20.0789
7203.829385 77.639 -24.9126
7256.031302 77.690 -29.8127
7308.611496 78.239 -23.4656
7361.572708 78.220 -35.5562
7414.917698 77.640 -52.2100
7468.649249 76.963 -42.1182
7522.770160 76.600 -43.1418
7577.283253 77.102 -41.9319
7632.191371 77.959 -33.6917
7687.497376 77.927 -42.7712
7743.204151 77.255 -50.0667
7799.314600 76.958 -42.8953
7855.831649 77.318 -42.7908
7912.758244 78.010 -59.4443
7970.097352 78.083 -68.3352
8027.851962 77.300 -73.5300
8086.025087 76.177 -83.5652
8144.619758 75.569 -82.9038
8203.639030 75.651 -82.3213
8263.085980 76.051 -79.3018
8322.963708 75.782 -68.5129
8383.275334 75.241 -58.6611
8444.024002 75.057 -53.8127
8505.212881 74.630 -52.8809
8566.845160 74.474 -78.6626
8628.924051 74.429 -58.5146
8691.452792 73.565 -51.8484
8754.434642 72.671 -68.8054
8817.872884 72.399 -39.3604
8881.770826 72.850 -34.5420
8946.131799 74.265 -35.1614
9010.959157 75.693 -33.8818
9076.256282 76.328 -40.1262
9142.026576 75.843 -43.2744
9208.273470 74.425 -57.6838
9275.000415 73.521 -45.6172
9342.210891 73.130 -22.7986
9409.908403 72.622 -30.6533
9478.096478 72.539 -19.4922
9546.778672 73.009 -28.4666
9615.958566 73.332 -39.9644
9685.639765 73.532 -43.7415
9755.825904 73.408 -45.9666
9826.520640 73.101 -54.6750
9897.727659 73.267 -53.6687
9969.450674 73.492 -68.5793
10041.693423 73.411 -81.8718
10114.459673 72.866 -73.9851
10187.753217 72.632 -95.2913
10261.577877 72.093 -124.1865
10335.937500 70.942 -124.1675
10410.835964 69.563 -41.8848
10486.277173 69.362 61.5635
10562.265060 70.490 60.4321
10638.803587 71.128 42.9880
10715.896743 71.160 57.0181
10793.548548 71.719 102.0684
10871.763050 72.730 107.0029
10950.544327 72.931 92.3662
11029.896485 72.197 74.0435
11109.823662 71.713 65.0264
11190.330024 71.986 67.6985
11271.419768 72.443 62.6719
11353.097122 72.760 55.3821
11435.366344 72.835 43.8015
11518.231722 72.552 43.1470
11601.697577 72.067 44.8152
11685.768261 72.055 52.2661
11770.448155 72.898 51.8743
11855.741674 74.099 42.2043
11941.653265 74.947 28.4973
12028.187408 74.852 18.1511
12115.348612 74.206 24.8364
12203.141422 73.950 29.2278
12291.570415 74.123 23.3967
12380.640201 74.349 17.9204
12470.355424 74.342 11.4482
12560.720760 73.840 3.3042
12651.740920 73.331 4.9932
12743.420650 73.505 12.6245
12835.764729 73.947 8.6660
12928.777972 73.840 -1.1548
13022.465227 73.422 -4.5461
13116.831378 72.941 -3.8943
13211.881345 72.326 -6.7554
13307.620084 71.557 -16.6226
13404.052584 70.770 -29.3040
13501.183875 69.785 -37.8872
13599.019019 68.270 -44.2676
13697.563116 66.561 -39.5864
13796.821305 65.354 -31.4465
13896.798760 65.132 -26.5491
13997.500692 65.850 -7.6653
14098.932352 66.510 -2.2346
14201.099028 66.467 7.0308
14304.006046 66.639 20.1099
14407.658770 67.025 12.4619
14512.062604 66.770 0.1250
14617.222992 66.583 12.7412
14723.145416 66.710 65.7585
14829.835397 66.200 62.5459
14937.298497 65.545 62.4707
15045.540320 65.539 99.7930
15154.566507 65.397 91.7493
15264.382743 65.026 74.3513
15374.994752 64.856 67.7454
15486.408302 64.641 89.9336
15598.629201 64.417 90.8076
15711.663298 64.108 87.7068
15825.516487 63.979 87.9194
15940.194703 63.807 81.7351
16055.703925 63.528 85.1592
16172.050174 63.855 98.5437
16289.239516 64.497 101.0444
16407.278061 64.837 99.5527
16526.171961 65.414 104.8801
16645.927415 66.647 98.3572
16766.550667 67.403 80.4641
16888.048005 67.187 65.8743
17010.425762 66.395 58.9448
17133.690320 65.428 55.6311
17257.848103 64.098 46.6035
17382.905584 62.372 42.2195
17508.869284 61.063 48.0344
17635.745768 60.525 61.8716
17763.541652 60.308 69.3115
17892.263597 59.784 64.4546
18021.918315 59.090 68.9680
18152.512564 58.724 75.2007
18284.053153 58.163 69.2747
18416.546939 57.058 73.6257
18550.000830 56.359 82.5327
18684.421783 55.745 83.3574
18819.816805 54.812 89.0969
18956.192956 53.944 97.2002
19093.557344 53.169 97.9758
19231.917131 52.404 100.5168
19371.279531 51.894 106.5520
19511.651807 51.208 105.4050
19653.041280 50.218 102.6831
19795.455318 49.127 104.1135
19938.901348 47.845 108.5691
