* Measurement data measured by REW V5.31.1
* Source: Scarlett 2i4 USB, MICROPHONE, R, volume: no control
* Format: 512k Log Swept Sine, 1 sweep at -18.0 dBFS with no timing reference
* Dated: May 16, 2024 7:05:18 AM
* REW Settings:
*  C-weighting compensation: Off
*  Target level: 75.0 dB
* Note: ; 
* Measurement: bns-back12-p1-r
* Smoothing: 1/48 octave
* Frequency Step: 96 ppo
* Start Frequency: 10.093689 Hz
*
* Freq(Hz) SPL(dB) Phase(degrees)
10.093689 39.918 -105.3065
10.166832 39.552 -113.3073
10.240505 39.103 -122.9187
10.314712 38.643 -134.0662
10.389457 38.213 -146.4453
10.464743 37.966 -159.8316
10.540575 38.020 -175.2542
10.616956 38.280 168.3264
10.693891 38.711 152.7226
10.771383 39.307 139.0262
10.849437 40.112 126.6949
10.928057 41.093 115.6407
11.007246 42.135 106.1246
11.087009 43.122 98.0191
11.167350 44.012 90.8118
11.248273 44.853 84.0444
11.329783 45.647 77.8485
11.411883 46.388 72.2634
11.494578 47.068 67.1404
11.577873 47.687 62.1495
11.661771 48.255 57.3897
11.746277 48.782 52.9481
11.831395 49.271 48.7912
11.917130 49.717 44.6953
12.003487 50.127 40.7197
12.090469 50.507 36.9337
12.178081 50.861 33.3169
12.266329 51.185 29.7339
12.355216 51.483 26.2219
12.444747 51.760 22.8208
12.534926 52.016 19.4816
12.625760 52.250 16.1425
12.717251 52.462 12.8368
12.809406 52.653 9.5818
12.902228 52.823 6.2830
12.995723 52.971 2.9506
13.089895 53.092 -0.3638
13.184750 53.185 -3.6815
13.280292 53.251 -7.1219
13.376526 53.284 -10.5903
13.473458 53.279 -13.9932
13.571093 53.234 -17.4982
13.669434 53.147 -21.1045
13.768489 53.009 -24.6382
13.868261 52.815 -28.0729
13.968756 52.565 -31.6325
14.069979 52.248 -35.1235
14.171936 51.853 -38.3138
14.274632 51.380 -41.4215
14.378072 50.820 -44.3568
14.482261 50.155 -46.7806
14.587206 49.369 -48.5709
14.692910 48.483 -49.6600
14.799381 47.526 -49.6751
14.906624 46.458 -47.9312
15.014643 45.356 -43.8702
15.123446 44.512 -37.4703
15.233036 44.146 -28.8496
15.343421 44.206 -18.6915
15.454606 44.619 -9.8993
15.566596 45.381 -3.9406
15.679398 46.422 -0.3141
15.793018 47.472 1.1805
15.907460 48.371 0.8918
16.022732 49.170 -0.6133
16.138840 49.858 -2.7352
16.255788 50.421 -5.4385
16.373585 50.869 -8.6687
16.492234 51.220 -11.8856
16.611744 51.478 -15.2195
16.732119 51.650 -18.6797
16.853367 51.754 -21.8198
16.975494 51.790 -24.8087
17.098505 51.775 -27.5994
17.222408 51.732 -29.9021
17.347209 51.663 -31.8042
17.472914 51.600 -33.3240
17.599530 51.569 -34.3470
17.727063 51.577 -34.9119
17.855521 51.654 -35.2980
17.984909 51.812 -35.4207
18.115235 52.045 -35.4861
18.246506 52.348 -35.8042
18.378727 52.717 -36.2478
18.511907 53.120 -37.0079
18.646052 53.542 -38.1309
18.781169 53.971 -39.5010
18.917265 54.384 -41.1062
19.054347 54.777 -42.9368
19.192423 55.142 -44.7923
19.331499 55.475 -46.6995
19.471583 55.778 -48.5550
19.612682 56.055 -50.2025
19.754804 56.310 -51.7106
19.897956 56.558 -52.9238
20.042144 56.804 -53.8503
20.187378 57.066 -54.5275
20.333664 57.357 -54.9144
20.481010 57.684 -55.1282
20.629424 58.056 -55.2927
20.778913 58.472 -55.4116
20.929486 58.922 -55.7400
21.081150 59.402 -56.2181
21.233912 59.886 -56.9847
21.387782 60.366 -58.0396
21.542767 60.821 -59.3026
21.698874 61.238 -60.8071
21.856113 61.611 -62.3925
22.014492 61.931 -63.9921
22.174018 62.200 -65.5310
22.334700 62.423 -66.8119
22.496546 62.612 -67.8634
22.659566 62.788 -68.4918
22.823766 62.967 -68.7662
22.989157 63.182 -68.6996
23.155745 63.444 -68.3599
23.323542 63.769 -68.0291
23.492554 64.153 -67.7349
23.662790 64.576 -67.8043
23.834261 65.023 -68.1772
24.006973 65.459 -68.9609
24.180938 65.870 -70.0445
24.356163 66.236 -71.2842
24.532658 66.558 -72.5907
24.710431 66.844 -73.7048
24.889493 67.115 -74.6196
25.069853 67.403 -75.1467
25.251519 67.744 -75.4940
25.434502 68.169 -75.6597
25.618811 68.685 -76.1453
25.804456 69.289 -77.0050
25.991445 69.938 -78.7219
26.179790 70.603 -81.1932
26.369500 71.228 -84.5759
26.560584 71.786 -88.6437
26.753053 72.242 -93.3329
26.946917 72.581 -98.3081
27.142185 72.790 -103.5537
27.338869 72.869 -108.5378
27.536977 72.821 -113.3045
27.736522 72.672 -117.2465
27.937512 72.463 -120.3636
28.139959 72.256 -122.2213
28.343872 72.152 -123.0998
28.549264 72.217 -123.0565
28.756143 72.505 -123.0990
28.964522 72.977 -123.7390
29.174411 73.563 -125.5417
29.385821 74.151 -128.6705
29.598763 74.675 -132.9033
29.813248 75.067 -138.0660
30.029287 75.297 -143.5977
30.246891 75.348 -149.4301
30.466073 75.213 -154.8753
30.686842 74.906 -159.6480
30.909212 74.453 -163.3388
31.133193 73.935 -165.3121
31.358797 73.473 -165.5393
31.586035 73.199 -163.9549
31.814921 73.241 -161.8088
32.045465 73.567 -160.2719
32.277680 74.081 -160.1414
32.511577 74.605 -161.8206
32.747169 75.031 -164.7386
32.984469 75.294 -168.4915
33.223488 75.360 -172.4625
33.464239 75.244 -175.8464
33.706735 74.996 -178.2081
33.950987 74.706 -178.9286
34.197010 74.545 -177.7871
34.444816 74.666 -175.5437
34.694417 75.126 -173.3511
34.945827 75.864 -172.5419
35.199059 76.699 -173.9118
35.454126 77.496 -177.1774
35.711041 78.165 178.0964
35.969818 78.657 172.3256
36.230470 78.956 166.0973
36.493011 79.066 159.8423
36.757455 79.005 153.8638
37.023814 78.799 148.4849
37.292104 78.494 144.0521
37.562338 78.155 140.7189
37.834530 77.855 138.4212
38.108695 77.656 136.9243
38.384846 77.594 135.7999
38.662999 77.666 134.5343
38.943167 77.834 132.7636
39.225365 78.050 130.4017
39.509608 78.283 127.4930
39.795911 78.519 124.1206
40.084289 78.755 120.3446
40.374756 78.997 116.1572
40.667328 79.248 111.4668
40.962020 79.499 106.1439
41.258848 79.734 100.0861
41.557827 79.932 93.2408
41.858972 80.069 85.6070
42.162299 80.128 77.2241
42.467824 80.093 68.1594
42.775564 79.959 58.4938
43.085533 79.726 48.3093
43.397749 79.399 37.6796
43.712227 78.992 26.6647
44.028983 78.522 15.3009
44.348036 78.009 3.6114
44.669400 77.477 -8.3716
44.993093 76.947 -20.5774
45.319131 76.439 -32.8687
45.647532 75.973 -45.0214
45.978313 75.570 -56.7350
46.311491 75.257 -67.6852
46.647083 75.067 -77.6154
46.985107 75.031 -86.4340
47.325581 75.162 -94.2549
47.668521 75.441 -101.3174
48.013947 75.820 -107.8181
48.361876 76.250 -113.7741
48.712326 76.710 -119.0247
49.065315 77.219 -123.3738
49.420863 77.828 -126.8018
49.778987 78.586 -129.6067
50.139706 79.506 -132.3218
50.503039 80.557 -135.4414
50.869005 81.693 -139.2422
51.237623 82.881 -143.8358
51.608912 84.100 -149.3376
51.982891 85.321 -155.9473
52.359580 86.497 -163.8732
52.739000 87.564 -173.1970
53.121168 88.458 176.1971
53.506106 89.126 164.6035
53.893833 89.529 152.3982
54.284370 89.650 140.0286
54.677737 89.487 128.0068
55.073955 89.063 116.8623
55.473043 88.428 107.0725
55.875024 87.662 98.9341
56.279917 86.857 92.4412
56.687745 86.087 87.2307
57.098527 85.378 82.7793
57.512287 84.705 78.7886
57.929045 84.041 75.3342
58.348822 83.394 72.6499
58.771642 82.808 70.7885
59.197525 82.329 69.4408
59.626495 81.963 68.1406
60.058573 81.680 66.5887
60.493782 81.442 64.7400
60.932145 81.228 62.6780
61.373685 81.031 60.4507
61.818424 80.847 58.0509
62.266386 80.671 55.4633
62.717593 80.499 52.6782
63.172071 80.325 49.6743
63.629842 80.140 46.4410
64.090930 79.933 43.0364
64.555359 79.703 39.6078
65.023154 79.470 36.2714
65.494339 79.266 32.9406
65.968938 79.105 29.2650
66.446976 78.964 24.8606
66.928478 78.785 19.5613
67.413469 78.515 13.5005
67.901975 78.125 6.9342
68.394021 77.617 0.0507
68.889632 77.001 -7.2319
69.388835 76.265 -15.1772
69.891655 75.363 -24.0992
70.398118 74.203 -34.1074
70.908252 72.660 -45.0889
71.422083 70.577 -55.9957
71.939636 67.920 -62.8656
72.460941 65.717 -40.1952
72.986023 66.428 14.4258
73.514909 68.931 11.7418
74.047629 71.114 -3.9722
74.584208 72.691 -22.3169
75.124676 73.909 -40.1052
75.669061 75.071 -56.2656
76.217390 76.383 -70.8755
76.769692 77.858 -84.9128
77.325997 79.379 -99.1326
77.886333 80.823 -113.7250
78.450730 82.120 -128.5363
79.019216 83.226 -143.4656
79.591822 84.103 -158.3938
80.168577 84.721 -173.1416
80.749512 85.064 172.5518
81.334656 85.138 159.0288
81.924040 84.963 146.5164
82.517696 84.547 135.0908
83.115653 83.876 124.8964
83.717943 82.915 116.5219
84.324598 81.684 111.4781
84.935649 80.411 112.3374
85.551128 79.702 120.5248
86.171066 80.100 130.5261
86.795497 81.276 134.9598
87.424453 82.584 133.8899
88.057967 83.753 130.0779
88.696071 84.783 125.1417
89.338800 85.723 119.3987
89.986185 86.582 112.5571
90.638262 87.317 104.3341
91.295065 87.862 94.6571
91.956626 88.140 83.6593
92.622982 88.067 71.7546
93.294166 87.573 59.7534
93.970214 86.622 48.8823
94.651161 85.246 40.6719
95.337042 83.566 36.7568
96.027894 81.852 38.6519
96.723752 80.602 46.8296
97.424652 80.363 57.6560
98.130631 81.082 64.4969
98.841726 82.156 65.1440
99.557974 83.121 61.1459
100.279412 83.778 54.3710
101.006078 84.070 46.4011
101.738010 84.035 38.5818
102.475245 83.774 31.6775
103.217823 83.387 25.6194
103.965782 82.919 20.0476
104.719161 82.385 15.0502
105.477999 81.835 10.9698
106.242336 81.365 7.5688
107.012212 81.027 3.7953
107.787666 80.768 -1.3796
108.568740 80.474 -8.2755
109.355474 80.048 -16.6644
110.147909 79.439 -26.2220
110.946086 78.639 -36.7300
111.750047 77.688 -48.2617
112.559834 76.663 -61.4780
113.375489 75.662 -77.6108
114.197055 74.786 -97.8660
115.024574 74.135 -122.2435
115.858089 73.785 -148.2419
116.697645 73.761 -171.7887
117.543284 74.023 169.6509
118.395051 74.462 155.8477
119.252990 74.940 145.6575
120.117147 75.400 138.6449
120.987565 75.921 134.6737
121.864291 76.611 132.7847
122.747370 77.495 131.4275
123.636848 78.502 129.4421
124.532771 79.541 126.4380
125.435187 80.536 122.3225
126.344142 81.424 117.1477
127.259684 82.168 111.3611
128.181860 82.774 105.3984
129.110718 83.254 99.3771
130.046308 83.619 93.4520
130.988677 83.891 87.7443
131.937875 84.081 82.1462
132.893951 84.181 76.5781
133.856956 84.171 71.0000
134.826938 84.017 65.5715
135.803950 83.718 61.0569
136.788041 83.355 58.2134
137.779264 83.047 56.7819
138.777669 82.853 55.8688
139.783309 82.747 54.7090
140.796237 82.652 53.0748
141.816504 82.523 51.6439
142.844165 82.389 50.9246
143.879273 82.286 50.5986
144.921881 82.233 50.7384
145.972045 82.308 52.0707
147.029819 82.626 54.1776
148.095257 83.165 54.9199
149.168417 83.777 53.6948
150.249353 84.411 51.8484
151.338121 85.117 49.4949
152.434780 85.856 45.3237
153.539385 86.488 38.6749
154.651995 86.875 30.0859
155.772667 86.944 20.5127
156.901460 86.680 10.9048
158.038432 86.111 1.9615
159.183644 85.265 -6.3029
160.337154 84.103 -13.9343
161.499023 82.555 -19.7323
162.669312 80.640 -20.9604
163.848081 78.680 -13.3506
165.035392 77.521 4.5831
166.231306 77.750 19.4949
167.435887 78.686 24.3726
168.649196 79.617 24.2952
169.871298 80.405 22.9601
171.102255 81.096 20.5554
172.342133 81.634 15.8590
173.590995 81.929 9.7305
174.848907 82.034 3.8054
176.115934 81.982 -3.5016
177.392143 81.568 -13.5808
178.677599 80.557 -24.4938
179.972371 78.845 -33.9465
181.276525 76.454 -39.5676
182.590129 74.030 -30.2734
183.913252 74.009 49.6255
185.245964 76.571 68.3014
186.588332 79.166 61.8494
187.940428 81.042 50.8622
189.302322 82.200 38.5605
190.674085 82.753 26.6675
192.055788 82.867 16.4624
193.447503 82.720 7.9829
194.849303 82.390 -0.0372
196.261262 81.833 -8.0752
197.683452 81.026 -15.0388
199.115948 80.048 -20.5497
200.558824 78.940 -27.0354
202.012156 77.508 -37.0920
203.476019 75.585 -49.3646
204.950490 74.044 -35.2915
206.435646 74.706 75.8051
207.931564 76.456 64.2014
209.438322 77.793 53.1226
210.955998 78.721 47.2482
212.484672 79.552 44.5646
214.024424 80.304 40.9773
215.575333 80.853 36.3706
217.137481 81.228 32.8174
218.710948 81.626 31.4071
220.295818 82.244 31.2761
221.892172 83.079 29.7260
223.500094 83.928 25.1775
225.119668 84.593 18.0310
226.750978 84.947 9.1035
228.394109 84.898 -0.8843
230.049147 84.383 -10.6139
231.716178 83.402 -18.2782
233.395289 82.051 -22.1133
235.086567 80.547 -20.7318
236.790102 79.357 -12.5807
238.505980 79.287 3.2552
240.234293 80.613 17.8224
241.975130 82.407 20.4017
243.728581 83.809 13.6919
245.494739 84.553 3.7899
247.273695 84.767 -4.5129
249.065542 84.797 -9.2454
250.870374 84.961 -11.8954
252.688284 85.324 -15.3905
254.519367 85.718 -21.3069
256.363720 85.941 -29.3708
258.221437 85.865 -38.7035
260.092616 85.418 -48.3242
261.977354 84.583 -56.8807
263.875750 83.406 -63.0790
265.787903 81.995 -65.9650
267.713911 80.522 -64.7887
269.653877 79.232 -60.4335
271.607900 78.501 -51.6121
273.576083 78.922 -36.6064
275.558528 80.392 -27.7889
277.555338 82.028 -29.9777
279.566619 83.291 -38.4325
281.592474 84.006 -50.2758
283.633009 84.102 -63.7854
285.688331 83.564 -76.7581
287.758546 82.491 -86.5054
289.843763 81.119 -91.8809
291.944090 79.682 -94.4775
294.059638 78.260 -95.5325
296.190515 76.925 -92.9209
298.336833 76.127 -83.0830
300.498705 76.453 -70.7046
302.676243 77.608 -66.2180
304.869559 78.807 -69.8423
307.078770 79.598 -78.3586
309.303989 79.901 -87.7280
311.545334 79.947 -94.5325
313.802919 80.077 -99.2710
316.076865 80.418 -105.0054
318.367288 80.901 -112.5034
320.674309 81.457 -121.5999
322.998047 81.968 -133.3728
325.338624 82.184 -148.8430
327.696162 81.837 -166.2942
330.070783 80.869 178.5903
332.462612 79.586 169.9165
334.871773 78.574 166.7373
337.298392 78.098 162.2134
339.742595 77.868 155.4866
342.204510 77.946 153.0906
344.684265 78.872 155.8228
347.181989 80.432 152.6794
349.697813 81.906 141.8872
352.231868 83.041 128.7437
354.784285 83.928 115.6838
357.355198 84.602 101.9312
359.944741 84.973 87.0784
362.553049 84.960 72.2302
365.180258 84.597 59.1553
367.826505 84.062 49.1934
370.491927 83.675 42.7869
373.176665 83.694 37.2700
375.880856 83.920 27.6089
378.604644 83.836 13.2239
381.348169 83.082 -2.4163
384.111575 81.568 -15.1851
386.895006 79.469 -19.8972
389.698607 77.459 -11.0652
392.522524 76.591 1.1453
395.366904 76.816 3.6418
398.231895 77.257 0.1653
401.117648 77.575 -4.3506
404.024312 77.762 -10.1584
406.952038 77.655 -19.3093
409.900981 77.104 -28.7053
412.871292 76.228 -36.0896
415.863128 75.143 -44.3501
418.876643 73.657 -55.1099
421.911996 71.491 -64.4377
424.969344 68.914 -52.8726
428.048847 67.721 -9.8740
431.150666 68.658 -6.1018
434.274961 69.699 -25.3547
437.421897 70.189 -60.9033
440.591636 71.014 -168.1543
443.784345 72.363 102.4387
447.000189 73.162 64.7661
450.239337 72.909 39.7615
453.501956 72.139 30.4136
456.788219 71.621 25.0833
460.098294 70.911 11.4048
463.432356 69.250 -1.8101
466.790578 66.983 -3.9858
470.173135 66.572 74.3237
473.580203 68.998 115.9197
477.011961 71.640 106.5227
480.468586 73.894 99.1021
483.950259 76.024 95.2761
487.457163 77.785 85.8279
490.989478 78.891 72.4888
494.547390 79.371 59.4756
498.131084 79.324 47.3840
501.740748 78.733 36.2671
505.376568 77.577 28.5400
509.038735 76.176 29.7729
512.727439 75.704 46.1636
516.442874 77.056 63.6462
520.185232 79.020 64.3057
523.954708 80.340 52.7075
527.751500 80.550 36.5903
531.575805 79.714 24.9543
535.427822 78.855 34.5369
539.307753 79.484 55.7285
543.215800 80.757 52.1790
547.152165 81.396 40.9165
551.117055 81.522 35.0061
555.110677 82.081 39.0957
559.133237 83.430 40.8621
563.184947 84.829 32.7153
567.266018 85.715 19.0818
571.376661 85.816 2.1943
575.517092 84.948 -13.4861
579.687526 83.383 -18.9165
583.888181 82.011 -15.7754
588.119275 81.383 -15.0029
592.381030 81.161 -17.9453
596.673667 80.895 -23.3525
600.997410 80.251 -31.0752
605.352485 79.319 -31.2361
609.739119 78.999 -21.0483
614.157540 79.228 -24.4834
618.607979 79.018 -34.5542
623.090667 78.281 -42.1111
627.605839 77.244 -49.2007
632.153730 76.314 -49.5630
636.734576 76.257 -48.7966
641.348617 76.362 -68.3247
645.996094 75.397 -101.4797
650.677248 73.739 -142.7842
655.392323 73.664 171.4099
660.141566 75.672 137.0349
664.925224 77.803 111.4194
669.743546 79.445 92.1135
674.596784 80.662 76.9814
679.485191 81.376 62.5903
684.409020 81.476 49.5886
689.368530 81.212 43.0107
694.363979 81.481 47.1272
699.395626 82.670 50.0906
704.463736 83.853 42.0312
709.568570 84.311 29.1377
714.710396 83.990 18.0608
719.889483 83.264 14.4033
725.106099 82.795 16.5518
730.360516 82.754 16.9158
735.653010 82.871 15.7366
740.983855 83.160 17.3901
746.353329 83.929 21.1265
751.761713 85.004 19.6663
757.209288 86.072 15.4651
762.696339 86.905 7.5186
768.223151 87.177 -3.7659
773.790013 86.865 -13.4683
779.397214 86.207 -19.7852
785.045047 85.726 -18.3362
790.733808 86.025 -14.5894
796.463791 86.575 -20.7273
802.235296 86.547 -31.4949
808.048623 85.886 -39.5801
813.904077 85.138 -40.2290
819.801961 85.418 -29.5315
825.742584 86.733 -28.0383
831.726255 87.650 -41.9277
837.753287 87.588 -58.3125
843.823992 86.818 -72.3821
849.938689 85.419 -85.8284
856.097695 83.379 -90.8267
862.301332 81.169 -94.3057
868.549922 78.895 -99.6343
874.843793 77.469 -52.1912
881.183272 78.763 -11.6191
887.568689 80.890 -18.2295
894.000378 82.157 -32.9465
900.478673 82.273 -48.4370
907.003913 81.607 -54.5571
913.576437 81.474 -48.5762
920.196588 82.342 -48.1543
926.864712 82.825 -63.4868
933.581156 81.831 -82.0884
940.346270 80.026 -72.5007
947.160407 79.859 -34.7207
954.023921 80.863 -42.4153
960.937172 80.858 -61.6812
967.900519 79.584 -70.5947
974.914325 78.661 -37.1433
981.978956 79.616 -20.6697
989.094780 80.864 -27.4182
996.262169 81.817 -31.2241
1003.481495 83.143 -31.5979
1010.753136 85.062 -31.9036
1018.077470 87.087 -39.0151
1025.454879 88.345 -57.4207
1032.885748 88.488 -79.3862
1040.370463 87.543 -100.2427
1047.909417 85.572 -112.9980
1055.503000 83.314 -107.7786
1063.151610 82.025 -103.2986
1070.855645 81.409 -109.9346
1078.615506 80.723 -114.9746
1086.431599 80.953 -92.9775
1094.304330 82.533 -85.6414
1102.234110 83.495 -104.4922
1110.221353 83.113 -124.8652
1118.266475 81.811 -142.1643
1126.369895 79.645 -154.7932
1134.532035 77.183 -132.2573
1142.753322 76.966 -105.2642
1151.034184 78.897 -106.3840
1159.375052 80.641 -123.4014
1167.776361 81.503 -148.2522
1176.238550 81.767 -179.3958
1184.762060 81.444 137.0117
1193.347334 80.800 74.5640
1201.994821 79.609 -6.7434
1210.704971 77.062 -61.3594
1219.478238 73.816 -63.0127
1228.315080 73.251 4.2102
1237.215957 75.438 -5.7234
1246.181334 77.512 -28.7458
1255.211678 78.751 -53.3521
1264.307459 78.813 -78.8467
1273.469152 77.754 -98.2710
1282.697235 76.900 -101.7310
1291.992188 77.819 -108.1846
1301.354495 79.070 -144.2080
1310.784647 79.471 84.3079
1320.283132 79.195 -14.1304
1329.850448 78.642 -48.5625
1339.487093 78.332 -66.9170
1349.193569 78.452 -79.5127
1358.970381 79.022 -85.4910
1368.818041 80.218 -95.1152
1378.737061 81.219 -116.6895
1388.727958 81.324 -146.4333
1398.791253 80.523 177.3726
1408.927471 79.183 126.8455
1419.137140 78.210 33.3687
1429.420793 77.787 -40.9648
1439.778965 77.512 -77.0933
1450.212197 77.179 -104.6113
1460.721033 76.422 -121.0547
1471.306019 75.960 -126.6289
1481.967709 75.525 -145.7036
1492.706658 74.397 -169.3232
1503.523426 72.435 153.9375
1514.418576 71.410 91.5273
1525.392678 73.460 61.4556
1536.446302 76.465 60.7998
1547.580025 78.717 24.0073
1558.794428 80.325 -7.4961
1570.090095 81.908 -28.5063
1581.467615 83.578 -48.8223
1592.927581 84.869 -72.5288
1604.470591 85.289 -100.4102
1616.097246 84.406 -128.6504
1627.808153 82.228 -149.1943
1639.603922 79.382 -151.8120
1651.485168 77.705 -143.4614
1663.452510 78.185 -141.6177
1675.506573 79.294 -149.0947
1687.647984 79.643 -172.5903
1699.877377 78.771 159.7036
1712.195390 78.063 129.2915
1724.602663 78.555 43.9292
1737.099845 78.860 -57.8931
1749.687587 78.258 -102.9287
1762.366544 78.179 -123.3120
1775.137379 79.063 -155.0439
1788.000756 79.355 155.1431
1800.957346 78.621 -44.1299
1814.007826 77.737 -81.7808
1827.152874 77.669 -107.1704
1840.393177 77.284 -133.0430
1853.729425 75.763 -149.8823
1867.162312 74.027 -148.6797
1880.692540 74.538 -114.1494
1894.320813 77.237 -99.9385
1908.047843 79.873 -111.0664
1921.874344 81.667 -131.0439
1935.801038 82.299 -156.1812
1949.828650 81.531 178.3896
1963.957912 79.471 163.7642
1978.189561 77.626 173.7349
1992.524338 77.899 -171.6943
2006.962991 78.992 178.4453
2021.506272 79.966 179.2349
2036.154940 80.637 168.6445
2050.909758 80.255 156.2603
2065.771495 79.171 152.8291
2080.740927 77.770 127.1401
2095.818833 77.215 71.1875
2111.006001 78.185 -73.0181
2126.303220 79.457 -109.1606
2141.711290 81.121 -120.8013
2157.231013 82.871 -135.9307
2172.863198 84.221 -153.4673
2188.608660 85.312 -172.1030
2204.468221 85.620 164.2202
2220.442706 84.899 144.4800
2236.532950 84.194 155.7710
2252.739789 84.553 162.7881
2269.064070 84.999 146.4502
2285.506644 84.399 135.6353
2302.068367 83.317 135.6289
2318.750104 82.531 127.2773
2335.552723 81.584 113.2085
2352.477101 79.869 102.9692
2369.524119 78.366 118.7695
2386.694668 79.217 154.3501
2403.989641 81.022 149.7817
2421.409941 82.170 135.8740
2438.956476 82.541 121.8750
2456.630160 82.337 107.4321
2474.431915 81.992 102.7930
2492.362668 82.607 148.9268
2510.423356 83.878 143.0879
2528.614918 84.852 125.5137
2546.938304 85.306 108.8779
2565.394469 85.163 91.4580
2583.984375 84.284 76.2109
2602.708991 82.734 65.7573
2621.569293 80.579 66.7388
2640.566265 78.971 90.7798
2659.700897 78.863 92.9624
2678.974186 78.792 82.3765
2698.387137 78.435 82.2012
2717.940763 79.397 122.8403
2737.636082 81.185 122.1938
2757.474121 82.162 106.0801
2777.455915 82.128 89.1123
2797.582506 81.182 79.6851
2817.854942 80.885 95.2246
2838.274281 81.998 99.1333
2858.841586 82.642 83.1147
2879.557931 82.071 66.8428
2900.424394 80.769 59.1104
2921.442065 79.896 72.8022
2942.612039 80.140 94.6294
2963.935418 80.525 87.3394
2985.413316 80.288 74.3711
3007.046852 79.199 69.6221
3028.837153 78.979 89.1235
3050.785356 80.682 102.7852
3072.892604 82.167 96.4341
3095.160050 82.628 90.3135
3117.588856 82.768 82.6836
3140.180190 82.669 73.2041
3162.935230 82.482 67.4004
3185.855163 82.034 59.3213
3208.941182 81.236 55.9644
3232.194493 80.638 56.6211
3255.616307 80.165 50.6182
3279.207844 79.561 50.4922
3302.970336 79.676 70.9526
3326.905021 80.366 71.6064
3351.013146 80.517 61.7056
3375.295969 80.292 59.0503
3399.754755 80.264 56.2466
3424.390779 80.354 51.9751
3449.205326 80.164 43.6680
3474.199690 79.307 35.9126
3499.375173 78.050 34.5537
3524.733088 76.824 35.4429
3550.274757 75.811 39.4028
3576.001511 75.695 52.1919
3601.914692 76.342 63.1670
3628.015651 76.977 74.9043
3654.305748 78.242 81.2695
3680.786354 79.307 70.2617
3707.458849 79.172 54.5122
3734.324624 78.069 48.3350
3761.385080 77.305 60.4526
3788.641627 77.701 70.0552
3816.095686 78.265 68.6318
3843.748688 78.422 64.5122
3871.602076 78.941 75.1162
3899.657300 79.936 78.7759
3927.915825 80.588 71.1646
3956.379122 80.845 63.7427
3985.048676 81.004 60.6289
4013.925981 80.761 54.8750
4043.012544 79.969 49.4868
4072.309879 79.132 49.1978
4101.819515 78.873 52.3169
4131.542990 79.266 52.5098
4161.481854 79.775 46.6875
4191.637667 80.562 56.4224
4222.012001 81.937 61.8135
4252.606441 82.670 44.6357
4283.422580 81.932 24.5210
4314.462026 80.009 21.6494
4345.726396 78.155 33.1890
4377.217321 77.137 34.9146
4408.936442 76.741 35.9292
4440.885413 76.542 38.7915
4473.065899 76.656 41.5635
4505.479579 76.862 35.6362
4538.128141 76.532 27.7563
4571.013288 75.946 38.9458
4604.136735 76.079 48.6499
4637.500207 75.899 39.2529
4671.105446 75.114 36.0601
4704.954201 74.547 38.6758
4739.048239 74.437 45.5049
4773.389336 75.336 66.0474
4807.979283 76.515 61.7051
4842.819883 76.655 49.9995
4877.912952 76.365 53.1138
4913.260320 76.247 52.4370
4948.863830 75.868 50.6792
4984.725337 75.540 53.7817
5020.846712 75.995 74.1021
5057.229836 77.447 78.5000
5093.876609 78.286 61.3721
5130.788938 77.927 48.3062
5167.968750 77.309 55.3105
5205.417982 77.123 51.5249
5243.138586 76.688 40.2114
5281.132530 76.163 49.0854
5319.401793 76.235 70.5024
5357.948371 76.120 69.4272
5396.774274 76.147 76.5830
5435.881525 76.513 72.1772
5475.272163 76.658 69.6963
5514.948243 76.644 69.4194
5554.911831 77.303 79.3716
5595.165012 79.165 99.4785
5635.709884 80.441 87.6528
5676.548561 80.413 73.8853
5717.683172 80.148 70.5312
5759.115861 80.095 65.8408
5800.848789 79.921 62.4316
5842.884130 79.859 63.3018
5885.224077 80.259 65.7310
5927.870837 80.916 61.7510
5970.826633 81.311 54.9912
6014.093704 81.263 48.5127
6057.674306 80.914 44.3003
6101.570711 80.431 39.5054
6145.785208 79.895 40.0469
6190.320101 79.864 44.7236
6235.177712 80.045 43.2939
6280.360380 80.281 43.6812
6325.870460 80.625 40.1191
6371.710325 80.434 32.5137
6417.882365 79.988 35.7676
6464.388986 80.160 42.8525
6511.232613 80.406 37.8286
6558.415689 80.503 33.8091
6605.940673 80.663 29.9624
6653.810042 80.648 23.3955
6702.026292 80.272 17.4868
6750.591937 79.869 17.4028
6799.509509 79.613 16.8032
6848.781558 79.741 19.4478
6898.410653 80.227 15.3115
6948.399380 79.824 1.2700
6998.750346 78.713 11.6509
7049.466176 78.063 22.4653
7100.549514 77.691 24.4185
7152.003023 77.677 24.8193
7203.829385 77.590 19.2476
7256.031302 77.416 18.5557
7308.611496 77.558 37.6865
7361.572708 78.721 52.5435
7414.917698 80.457 53.8813
7468.649249 81.732 40.0972
7522.770160 81.726 26.2510
7577.283253 81.324 37.6582
7632.191371 81.411 40.8428
7687.497376 81.919 43.0288
7743.204151 81.952 27.4678
7799.314600 80.791 14.5874
7855.831649 79.478 18.8340
7912.758244 79.421 33.5254
7970.097352 80.402 34.1738
8027.851962 81.068 21.7822
8086.025087 80.730 14.0864
8144.619758 80.220 27.8584
8203.639030 80.489 31.4580
8263.085980 81.309 32.8130
8322.963708 81.606 20.3135
8383.275334 81.084 13.8945
8444.024002 80.903 17.2935
8505.212881 81.300 21.3843
8566.845160 81.601 14.2935
8628.924051 81.377 3.8306
8691.452792 80.768 -2.0264
8754.434642 80.443 -1.0244
8817.872884 80.533 6.3501
8881.770826 80.686 5.1162
8946.131799 80.463 -0.2627
9010.959157 80.207 0.3843
9076.256282 80.142 1.9326
9142.026576 80.002 -3.3252
9208.273470 79.538 -10.6064
9275.000415 78.772 -14.7061
9342.210891 78.154 -15.8862
9409.908403 77.723 -6.9731
9478.096478 77.250 -10.2612
9546.778672 76.334 -16.1870
9615.958566 75.760 0.3071
9685.639765 76.306 15.3369
9755.825904 76.774 5.4927
9826.520640 76.483 -3.9854
9897.727659 76.487 15.6133
9969.450674 77.739 29.8125
10041.693423 78.357 16.9756
10114.459673 78.281 19.2158
10187.753217 79.071 35.0200
10261.577877 79.912 27.8911
10335.937500 79.749 13.7129
10410.835964 79.212 12.9175
10486.277173 79.404 19.7671
10562.265060 79.831 12.4683
10638.803587 79.386 2.7598
10715.896743 78.673 2.3062
10793.548548 78.554 4.0542
10871.763050 78.692 -0.0044
10950.544327 78.485 -4.1948
11029.896485 78.158 -3.4009
11109.823662 78.187 0.0444
11190.330024 78.363 -4.1646
11271.419768 78.267 -7.8135
11353.097122 77.891 -8.9253
11435.366344 77.498 -9.9087
11518.231722 77.153 -13.9360
11601.697577 77.011 -13.6528
11685.768261 77.246 -10.9858
11770.448155 77.054 -16.9492
11855.741674 76.388 -17.8887
11941.653265 75.899 -12.6792
12028.187408 75.468 -16.6143
12115.348612 74.794 -21.1724
12203.141422 74.225 -9.8242
12291.570415 73.895 -0.9062
12380.640201 73.719 3.7061
12470.355424 74.192 13.9800
12560.720760 74.992 12.3750
12651.740920 75.181 7.7554
12743.420650 75.231 17.6704
12835.764729 75.604 23.5908
12928.777972 76.349 24.1338
13022.465227 77.575 25.8901
13116.831378 78.815 21.8833
13211.881345 79.478 14.9380
13307.620084 79.818 11.3208
13404.052584 80.179 6.0674
13501.183875 80.378 -2.9360
13599.019019 80.326 -10.5107
13697.563116 80.074 -17.4189
13796.821305 79.339 -26.2197
13896.798760 78.048 -28.0361
13997.500692 76.954 -23.1777
14098.932352 76.514 -20.4902
14201.099028 76.653 -15.6626
14304.006046 77.114 -16.1040
14407.658770 77.368 -20.0249
14512.062604 77.484 -20.7002
14617.222992 77.603 -25.7554
14723.145416 77.443 -31.6172
14829.835397 77.137 -34.3057
14937.298497 76.839 -38.8311
15045.540320 76.419 -43.6509
15154.566507 76.030 -47.3364
15264.382743 75.598 -53.4014
15374.994752 75.044 -57.9922
15486.408302 74.513 -63.7759
15598.629201 73.522 -74.0469
15711.663298 71.922 -80.5830
15825.516487 70.071 -84.0703
15940.194703 68.027 -78.0415
16055.703925 66.720 -58.2539
16172.050174 66.334 -44.6865
16289.239516 66.660 -26.9219
16407.278061 67.100 -25.3643
16526.171961 67.352 -9.2417
16645.927415 67.845 5.5015
16766.550667 68.812 14.6133
16888.048005 70.013 9.5503
17010.425762 70.688 1.5928
17133.690320 71.011 -3.8735
17257.848103 70.939 -11.4038
17382.905584 70.602 -14.9023
17508.869284 70.389 -16.5195
17635.745768 70.404 -16.5542
17763.541652 70.610 -16.8525
17892.263597 70.634 -16.0459
18021.918315 70.646 -15.9619
18152.512564 70.950 -17.1401
18284.053153 71.167 -20.4360
18416.546939 70.865 -23.5332
18550.000830 70.368 -26.5845
18684.421783 69.917 -30.5259
18819.816805 69.513 -34.2109
18956.192956 69.000 -37.6650
19093.557344 68.338 -40.6880
19231.917131 67.396 -43.8540
19371.279531 66.386 -44.9253
19511.651807 65.650 -46.6284
19653.041280 64.884 -50.8525
19795.455318 63.559 -57.6587
19938.901348 61.982 -62.7876
