* Measurement data measured by REW V5.31.1
* Source: Scarlett 2i4 USB, MICROPHONE, R, volume: no control
* Format: 512k Log Swept Sine, 1 sweep at -18.0 dBFS with no timing reference
* Dated: May 16, 2024 7:39:37 AM
* REW Settings:
*  C-weighting compensation: Off
*  Target level: 75.0 dB
* Note: ; 
* Measurement: bns-back12-side2-p1-c
* Smoothing: 1/48 octave
* Frequency Step: 96 ppo
* Start Frequency: 10.093689 Hz
*
* Freq(Hz) SPL(dB) Phase(degrees)
10.093689 48.181 -50.2419
10.166832 48.199 -49.2711
10.240505 48.222 -48.0362
10.314712 48.247 -46.6212
10.389457 48.279 -45.1179
10.464743 48.343 -43.6044
10.540575 48.459 -42.0235
10.616956 48.609 -40.4030
10.693891 48.781 -38.7920
10.771383 48.968 -37.2338
10.849437 49.172 -35.7454
10.928057 49.394 -34.3124
11.007246 49.631 -32.9221
11.087009 49.879 -31.5611
11.167350 50.135 -30.2227
11.248273 50.402 -28.9207
11.329783 50.682 -27.6682
11.411883 50.980 -26.4808
11.494578 51.298 -25.3474
11.577873 51.635 -24.2319
11.661771 51.991 -23.2255
11.746277 52.364 -22.4183
11.831395 52.756 -21.8271
11.917130 53.169 -21.3397
12.003487 53.594 -21.0577
12.090469 54.019 -21.0812
12.178081 54.442 -21.4243
12.266329 54.865 -21.9706
12.355216 55.279 -22.7474
12.444747 55.670 -23.7916
12.534926 56.036 -25.1287
12.625760 56.378 -26.6939
12.717251 56.688 -28.4142
12.809406 56.958 -30.2542
12.902228 57.189 -32.3360
12.995723 57.378 -34.5715
13.089895 57.522 -36.8071
13.184750 57.616 -39.0153
13.280292 57.660 -41.3791
13.376526 57.655 -43.7203
13.473458 57.599 -45.8265
13.571093 57.488 -47.8203
13.669434 57.327 -49.7187
13.768489 57.127 -51.3140
13.868261 56.888 -52.4403
13.968756 56.610 -53.1834
14.069979 56.328 -53.4948
14.171936 56.074 -53.2734
14.274632 55.843 -52.3463
14.378072 55.666 -50.9150
14.482261 55.597 -49.3220
14.587206 55.657 -47.4393
14.692910 55.824 -45.4846
14.799381 56.079 -44.0267
14.906624 56.425 -43.1755
15.014643 56.843 -42.7812
15.123446 57.272 -43.0298
15.233036 57.682 -44.0166
15.343421 58.077 -45.5538
15.454606 58.427 -47.4324
15.566596 58.713 -49.6787
15.679398 58.936 -52.3325
15.793018 59.092 -55.0064
15.907460 59.173 -57.6442
16.022732 59.180 -60.4277
16.138840 59.120 -62.9370
16.255788 58.990 -65.0421
16.373585 58.801 -66.8961
16.492234 58.582 -68.1801
16.611744 58.337 -68.6973
16.732119 58.097 -68.5380
16.853367 57.930 -67.7577
16.975494 57.852 -66.1502
17.098505 57.883 -64.1047
17.222408 58.060 -62.1758
17.347209 58.385 -60.2385
17.472914 58.799 -58.8003
17.599530 59.269 -58.1457
17.727063 59.777 -58.0509
17.855521 60.264 -58.5222
17.984909 60.709 -59.5976
18.115235 61.104 -60.9939
18.246506 61.428 -62.5078
18.378727 61.680 -64.2516
18.511907 61.866 -65.8241
18.646052 61.983 -67.2094
18.781169 62.046 -68.3643
18.917265 62.072 -68.9760
19.054347 62.067 -69.1245
19.192423 62.073 -68.6973
19.331499 62.106 -67.6035
19.471583 62.196 -65.9695
19.612682 62.382 -63.9187
19.754804 62.670 -61.5236
19.897956 63.068 -59.2145
20.042144 63.581 -57.0099
20.187378 64.177 -55.2707
20.333664 64.840 -54.0727
20.481010 65.547 -53.4427
20.629424 66.262 -53.5211
20.778913 66.975 -54.1278
20.929486 67.659 -55.3339
21.081150 68.305 -57.0170
21.233912 68.896 -59.0598
21.387782 69.424 -61.4844
21.542767 69.883 -64.0378
21.698874 70.266 -66.7491
21.856113 70.576 -69.4192
22.014492 70.812 -71.9042
22.174018 70.987 -74.1781
22.334700 71.118 -75.9510
22.496546 71.224 -77.3086
22.659566 71.347 -78.0690
22.823766 71.508 -78.3368
22.989157 71.752 -78.3241
23.155745 72.084 -78.1084
23.323542 72.503 -78.2059
23.492554 72.989 -78.5771
23.662790 73.493 -79.5647
23.834261 73.993 -81.0109
24.006973 74.442 -82.8428
24.180938 74.830 -84.9202
24.356163 75.145 -86.8589
24.532658 75.403 -88.5989
24.710431 75.635 -89.6782
24.889493 75.894 -90.2028
25.069853 76.248 -89.9717
25.251519 76.745 -89.5546
25.434502 77.421 -89.1402
25.618811 78.237 -89.6217
25.804456 79.154 -91.0292
25.991445 80.079 -93.8168
26.179790 80.966 -97.6887
26.369500 81.753 -102.6091
26.560584 82.417 -108.2600
26.753053 82.932 -114.4791
26.946917 83.289 -120.8814
27.142185 83.480 -127.4851
27.338869 83.506 -133.6612
27.536977 83.372 -139.5332
27.736522 83.099 -144.3599
27.937512 82.731 -148.1578
28.139959 82.333 -150.3209
28.343872 82.032 -151.0935
28.549264 81.921 -150.4473
28.756143 82.090 -149.6360
28.964522 82.499 -149.3613
29.174411 83.063 -150.4107
29.385821 83.640 -152.9494
29.598763 84.152 -156.7094
29.813248 84.529 -161.4021
30.029287 84.749 -166.4226
30.246891 84.806 -171.6438
30.466073 84.715 -176.4049
30.686842 84.513 179.4430
30.909212 84.244 176.1844
31.133193 83.988 173.9284
31.358797 83.806 172.3998
31.586035 83.743 171.3654
31.814921 83.797 170.0946
32.045465 83.918 168.3492
32.277680 84.046 165.9529
32.511577 84.112 163.0245
32.747169 84.083 159.9749
32.984469 83.951 157.0722
33.223488 83.737 154.8142
33.464239 83.508 153.4854
33.706735 83.340 153.0743
33.950987 83.307 153.4229
34.197010 83.455 153.7955
34.444816 83.750 153.5809
34.694417 84.128 152.4593
34.945827 84.511 150.2883
35.199059 84.834 147.2921
35.454126 85.065 143.7922
35.711041 85.197 140.0363
35.969818 85.232 136.2804
36.230470 85.192 132.7593
36.493011 85.097 129.5509
36.757455 84.969 126.6869
37.023814 84.826 124.1630
37.292104 84.682 121.9270
37.562338 84.542 119.9149
37.834530 84.410 118.0900
38.108695 84.287 116.4272
38.384846 84.177 114.9094
38.662999 84.083 113.5184
38.943167 84.010 112.2153
39.225365 83.960 110.9422
39.509608 83.931 109.6329
39.795911 83.916 108.2274
40.084289 83.904 106.6900
40.374756 83.880 105.0301
40.667328 83.832 103.3232
40.962020 83.756 101.7036
41.258848 83.659 100.3148
41.557827 83.561 99.2578
41.858972 83.492 98.5381
42.162299 83.478 98.0359
42.467824 83.528 97.5321
42.775564 83.634 96.7998
43.085533 83.770 95.7103
43.397749 83.907 94.2794
43.712227 84.031 92.6264
44.028983 84.144 90.8727
44.348036 84.257 89.0551
44.669400 84.381 87.0991
44.993093 84.511 84.8659
45.319131 84.628 82.2453
45.647532 84.704 79.2331
45.978313 84.711 75.9511
46.311491 84.637 72.6089
46.647083 84.485 69.4361
46.985107 84.275 66.6093
47.325581 84.035 64.1992
47.668521 83.790 62.1602
48.013947 83.555 60.3760
48.361876 83.329 58.7379
48.712326 83.107 57.2038
49.065315 82.885 55.7996
49.420863 82.667 54.5696
49.778987 82.464 53.5158
50.139706 82.285 52.5675
50.503039 82.132 51.6062
50.869005 81.994 50.5244
51.237623 81.853 49.2842
51.608912 81.691 47.9380
51.982891 81.498 46.6045
52.359580 81.274 45.4179
52.739000 81.027 44.4791
53.121168 80.769 43.8360
53.506106 80.512 43.5049
53.893833 80.264 43.5107
54.284370 80.041 43.8992
54.677737 79.866 44.6866
55.073955 79.764 45.7661
55.473043 79.752 46.8710
55.875024 79.814 47.6865
56.279917 79.915 48.0435
56.687745 80.011 48.0256
57.098527 80.083 47.9428
57.512287 80.151 48.1670
57.929045 80.270 48.9053
58.348822 80.505 50.0239
58.771642 80.897 51.0053
59.197525 81.429 51.1805
59.626495 82.034 50.1013
60.058573 82.635 47.6849
60.493782 83.167 44.1193
60.932145 83.592 39.7319
61.373685 83.897 34.8365
61.818424 84.084 29.7073
62.266386 84.167 24.5449
62.717593 84.161 19.4525
63.172071 84.079 14.4938
63.629842 83.934 9.7307
64.090930 83.739 5.2386
64.555359 83.520 1.1062
65.023154 83.318 -2.6776
65.494339 83.174 -6.3385
65.968938 83.105 -10.3664
66.446976 83.087 -15.2554
66.928478 83.057 -21.2802
67.413469 82.955 -28.4144
67.901975 82.746 -36.4849
68.394021 82.426 -45.3381
68.889632 82.013 -55.0641
69.388835 81.533 -65.9691
69.891655 81.012 -78.6165
70.398118 80.478 -93.6978
70.908252 79.974 -112.0057
71.422083 79.565 -133.9510
71.939636 79.318 -159.1804
72.460941 79.258 174.4181
72.986023 79.342 149.5752
73.514909 79.496 128.6117
74.047629 79.717 112.3979
74.584208 80.099 100.9028
75.124676 80.766 92.9296
75.669061 81.732 86.5648
76.217390 82.882 79.9843
76.769692 84.068 72.3730
77.325997 85.180 63.5793
77.886333 86.142 53.7446
78.450730 86.909 43.1671
79.019216 87.457 32.2301
79.591822 87.791 21.4446
80.168577 87.948 11.2546
80.749512 87.992 1.9598
81.334656 88.003 -6.4141
81.924040 88.041 -14.2396
82.517696 88.113 -22.0826
83.115653 88.172 -30.3552
83.717943 88.145 -39.0351
84.324598 87.986 -47.6778
84.935649 87.698 -55.7036
85.551128 87.335 -62.6295
86.171066 86.990 -68.2600
86.795497 86.759 -72.8853
87.424453 86.692 -77.3224
88.057967 86.742 -82.4376
88.696071 86.795 -88.5074
89.338800 86.753 -95.1035
89.986185 86.588 -101.3514
90.638262 86.375 -106.2185
91.295065 86.307 -109.1703
91.956626 86.576 -111.3229
92.622982 87.152 -115.0294
93.294166 87.800 -121.3875
93.970214 88.317 -129.6768
94.651161 88.634 -138.7971
95.337042 88.746 -148.1036
96.027894 88.655 -157.1938
96.723752 88.370 -165.4720
97.424652 87.955 -172.2139
98.130631 87.533 -177.0748
98.841726 87.235 179.5469
99.557974 87.130 176.7810
100.279412 87.209 173.9011
101.006078 87.424 170.5325
101.738010 87.714 166.4536
102.475245 88.013 161.6078
103.217823 88.267 156.3027
103.965782 88.476 151.0382
104.719161 88.677 146.0690
105.477999 88.915 141.2991
106.242336 89.218 136.4419
107.012212 89.582 131.0316
107.787666 89.952 124.5405
108.568740 90.235 116.7869
109.355474 90.350 108.1504
110.147909 90.264 99.3164
110.946086 90.003 90.8732
111.750047 89.620 82.9202
112.559834 89.137 74.9929
113.375489 88.498 66.5906
114.197055 87.589 57.9214
115.024574 86.312 50.2864
115.858089 84.677 45.8358
116.697645 82.869 46.2406
117.543284 81.204 51.1138
118.395051 79.995 58.9756
119.252990 79.428 67.7078
120.117147 79.421 74.4841
120.987565 79.716 78.9579
121.864291 80.181 82.3374
122.747370 80.800 84.7495
123.636848 81.541 85.4080
124.532771 82.290 83.3992
125.435187 82.874 78.2578
126.344142 83.105 70.3604
127.259684 82.831 60.8652
128.181860 81.954 51.5023
129.110718 80.450 44.0747
130.046308 78.386 40.4988
130.988677 76.390 50.5963
131.937875 76.659 110.3931
132.893951 79.333 134.4001
133.856956 82.054 130.8860
134.826938 84.075 121.2441
135.803950 85.381 109.8633
136.788041 86.088 98.7739
137.779264 86.343 89.1084
138.777669 86.305 81.5383
139.783309 86.164 76.3672
140.796237 86.078 72.4983
141.816504 86.031 68.0625
142.844165 85.892 62.9480
143.879273 85.615 58.5396
144.921881 85.292 55.6648
145.972045 85.042 53.7212
147.029819 84.879 51.4021
148.095257 84.729 48.3701
149.168417 84.571 45.3933
150.249353 84.456 42.2522
151.338121 84.362 37.4908
152.434780 84.156 30.4026
153.539385 83.687 20.9727
154.651995 82.814 9.1409
155.772667 81.439 -5.5328
156.901460 79.616 -25.7692
158.038432 77.991 -64.2808
159.183644 78.110 -139.3872
160.337154 79.995 177.0702
161.499023 82.141 155.8140
162.669312 83.951 141.6989
163.848081 85.374 130.6003
165.035392 86.451 121.0737
166.231306 87.257 113.0553
167.435887 87.899 106.6002
168.649196 88.460 101.1659
169.871298 88.955 96.0020
171.102255 89.373 91.0608
172.342133 89.751 86.9038
173.590995 90.154 83.3303
174.848907 90.572 79.3236
176.115934 90.940 74.6925
177.392143 91.231 70.0416
178.677599 91.464 65.5531
179.972371 91.648 61.0088
181.276525 91.772 56.3898
182.590129 91.828 51.8866
183.913252 91.814 47.5005
185.245964 91.705 43.0450
186.588332 91.467 38.8687
187.940428 91.115 35.7911
189.302322 90.727 34.3110
190.674085 90.400 34.2395
192.055788 90.244 35.7186
193.447503 90.437 39.1481
194.849303 91.100 42.6909
196.261262 92.065 42.9783
197.683452 93.017 39.2910
199.115948 93.765 33.2238
200.558824 94.277 26.2499
202.012156 94.576 18.9233
203.476019 94.671 11.2620
204.950490 94.530 3.3147
206.435646 94.113 -4.3823
207.931564 93.424 -10.5958
209.438322 92.578 -13.8646
210.955998 91.806 -13.8503
212.484672 91.327 -12.0903
214.024424 91.202 -10.4396
215.575333 91.348 -9.9023
217.137481 91.639 -10.7985
218.710948 91.963 -13.1639
220.295818 92.236 -16.7555
221.892172 92.405 -21.1802
223.500094 92.463 -25.7858
225.119668 92.445 -30.2041
226.750978 92.383 -34.6080
228.394109 92.280 -39.2469
230.049147 92.124 -44.0367
231.716178 91.918 -48.7555
233.395289 91.677 -53.5219
235.086567 91.407 -58.4110
236.790102 91.124 -63.3291
238.505980 90.828 -68.9313
240.234293 90.436 -76.0343
241.975130 89.822 -84.2948
243.728581 88.907 -92.7192
245.494739 87.660 -100.8224
247.273695 86.031 -108.5035
249.065542 83.922 -114.4602
250.870374 81.285 -115.2568
252.688284 78.380 -103.7583
254.519367 76.457 -66.6031
256.363720 76.929 -35.6874
258.221437 78.465 -29.4111
260.092616 79.705 -30.9247
261.977354 80.456 -33.1777
263.875750 80.903 -33.9370
265.787903 81.317 -32.5255
267.713911 82.000 -28.9805
269.653877 83.141 -24.6351
271.607900 84.569 -23.8630
273.576083 85.849 -29.3647
275.558528 86.717 -38.2738
277.555338 87.228 -46.9370
279.566619 87.602 -54.2532
281.592474 88.000 -61.4698
283.633009 88.373 -70.8424
285.688331 88.491 -83.5048
287.758546 88.130 -98.2482
289.843763 87.194 -112.8783
291.944090 85.696 -126.1838
294.059638 83.630 -138.0083
296.190515 80.944 -146.1393
298.336833 77.942 -137.3698
300.498705 76.554 -81.7142
302.676243 78.100 -62.0262
304.869559 80.279 -67.4585
307.078770 81.918 -79.9723
309.303989 82.926 -95.4717
311.545334 83.360 -113.0721
313.802919 83.181 -133.0685
316.076865 82.251 -154.9459
318.367288 80.431 -176.5010
320.674309 77.742 167.6119
322.998047 75.069 -174.2335
325.338624 74.875 -130.0071
327.696162 76.627 -142.2158
330.070783 78.145 -165.9922
332.462612 79.065 168.8779
334.871773 79.586 144.6918
337.298392 79.817 121.5876
339.742595 79.685 99.9554
342.204510 79.140 81.9783
344.684265 78.486 71.9318
347.181989 78.502 70.8049
349.697813 79.484 69.2173
352.231868 80.780 61.4611
354.784285 81.857 50.1810
357.355198 82.603 38.1675
359.944741 83.074 26.3513
362.553049 83.361 15.0989
365.180258 83.519 3.6855
367.826505 83.478 -8.9834
370.491927 83.113 -22.5249
373.176665 82.387 -35.6993
375.880856 81.349 -48.4275
378.604644 80.042 -61.6675
381.348169 78.491 -77.3169
384.111575 76.753 -99.7661
386.895006 75.277 -138.8745
389.698607 75.252 155.1172
392.522524 76.734 105.8459
395.366904 78.227 75.1091
398.231895 78.902 51.1138
401.117648 78.655 33.1379
404.024312 78.034 27.8352
406.952038 78.580 45.3076
409.900981 80.675 56.0481
412.871292 82.889 49.3528
415.863128 84.502 35.7944
418.876643 85.344 19.1443
421.911996 85.302 1.1575
424.969344 84.332 -14.0542
428.048847 82.802 -17.8198
431.150666 81.827 -6.1255
434.274961 81.865 -3.8469
437.421897 81.806 -12.1335
440.591636 81.214 -16.2480
443.784345 80.779 -10.5317
447.000189 81.347 -0.2505
450.239337 82.617 2.8342
453.501956 83.593 -4.7693
456.788219 83.841 -14.6331
460.098294 83.720 -19.0803
463.432356 84.257 -13.5959
466.790578 86.078 -4.6838
470.173135 88.278 -9.0183
473.580203 89.921 -24.7029
477.011961 90.758 -44.5010
480.468586 90.880 -64.5542
483.950259 90.502 -83.2156
487.457163 89.821 -101.8081
490.989478 88.793 -122.7969
494.547390 87.241 -146.2454
498.131084 85.128 -173.6362
501.740748 82.769 145.7666
505.376568 81.286 41.1091
509.038735 81.571 -29.5950
512.727439 82.676 -63.5015
516.442874 83.689 -90.3345
520.185232 84.238 -116.6335
523.954708 84.141 -143.3589
527.751500 83.329 -169.0461
531.575805 81.933 170.6672
535.427822 81.055 165.9902
539.307753 82.473 174.2881
543.215800 85.071 165.0530
547.152165 87.189 142.4939
551.117055 88.459 116.4253
555.110677 88.947 90.9973
559.133237 88.700 67.2405
563.184947 87.688 47.3987
567.266018 86.175 37.5083
571.376661 85.110 39.3350
575.517092 85.341 42.1375
579.687526 86.382 38.0225
583.888181 87.399 28.0264
588.119275 87.891 13.1375
592.381030 87.563 -3.5657
596.673667 86.376 -17.4011
600.997410 84.621 -23.0300
605.352485 83.351 -9.4600
609.739119 83.717 4.3604
614.157540 84.509 -2.9211
618.607979 84.418 -16.1926
623.090667 83.529 -21.1953
627.605839 83.240 -6.6838
632.153730 84.561 6.6904
636.734576 86.309 2.4182
641.348617 87.788 -6.5813
645.996094 89.239 -14.6562
650.677248 90.653 -26.8396
655.392323 91.616 -45.6077
660.141566 91.793 -68.7600
664.925224 91.012 -93.1025
669.743546 89.256 -114.5139
674.596784 86.742 -129.0986
679.485191 84.076 -135.4512
684.409020 82.486 -138.3767
689.368530 82.546 -153.0498
694.363979 82.847 176.1169
699.395626 82.460 140.7507
704.463736 81.842 112.3860
709.568570 81.879 92.1633
714.710396 82.859 79.9375
719.889483 84.415 69.9124
725.106099 85.653 53.7236
730.360516 86.238 37.4944
735.653010 86.552 27.2886
740.983855 87.554 27.7241
746.353329 89.288 23.7593
751.761713 90.614 7.7148
757.209288 90.901 -12.5073
762.696339 90.248 -28.8931
768.223151 89.137 -39.4189
773.790013 88.153 -44.4431
779.397214 88.155 -38.6538
785.045047 89.100 -41.5430
790.733808 89.435 -61.7297
796.463791 88.386 -83.9812
802.235296 86.133 -100.7791
808.048623 83.254 -115.3882
813.904077 81.026 -54.8708
819.801961 81.303 6.2881
825.742584 83.047 -2.6582
831.726255 85.172 -6.4512
837.753287 87.156 -15.6802
843.823992 88.790 -27.6387
849.938689 90.007 -43.2720
856.097695 90.526 -64.0945
862.301332 90.233 -87.9609
868.549922 89.039 -115.9080
874.843793 86.955 -150.3262
881.183272 85.182 113.7153
887.568689 85.570 20.4854
894.000378 86.891 -10.3228
900.478673 87.903 -30.8115
907.003913 88.721 -44.6367
913.576437 89.357 -59.1038
920.196588 89.225 -77.0842
926.864712 88.257 -87.3628
933.581156 87.347 -90.9897
940.346270 86.672 -100.6494
947.160407 85.586 -112.6235
954.023921 83.811 -120.1914
960.937172 81.679 -118.8281
967.900519 80.103 -103.4609
974.914325 79.957 -92.7107
981.978956 80.519 -95.2861
989.094780 80.481 -110.7866
996.262169 79.820 -124.8691
1003.481495 80.598 -15.2632
1010.753136 82.526 -23.9702
1018.077470 83.874 -42.9766
1025.454879 84.856 -53.3801
1032.885748 85.934 -61.6843
1040.370463 86.884 -73.4956
1047.909417 87.890 -79.2161
1055.503000 88.989 -88.1296
1063.151610 89.026 -111.9558
1070.855645 87.464 -132.5879
1078.615506 85.084 -128.7917
1086.431599 83.493 -120.0620
1094.304330 82.352 -132.0557
1102.234110 80.749 -132.5913
1110.221353 80.326 -90.7725
1118.266475 82.223 -77.8020
1126.369895 84.621 -82.1418
1134.532035 86.108 -99.6006
1142.753322 86.422 -119.1082
1151.034184 86.138 -133.1340
1159.375052 85.725 -148.0247
1167.776361 84.684 -167.4529
1176.238550 82.793 176.8457
1184.762060 80.602 162.5405
1193.347334 78.294 135.3486
1201.994821 75.819 69.2305
1210.704971 75.192 -37.2412
1219.478238 77.465 -34.8735
1228.315080 80.104 -49.4971
1237.215957 81.794 -71.6699
1246.181334 82.482 -92.1519
1255.211678 82.454 -107.7339
1264.307459 82.089 -120.0576
1273.469152 81.351 -130.6924
1282.697235 80.422 -135.2598
1291.992188 79.683 -138.5464
1301.354495 79.401 -139.2314
1310.784647 79.746 -141.4673
1320.283132 79.950 -154.8672
1329.850448 79.008 -171.8613
1339.487093 77.131 -174.5366
1349.193569 75.199 -177.1260
1358.970381 73.343 176.5977
1368.818041 72.284 169.3423
1378.737061 72.559 -81.5488
1388.727958 73.265 -96.4717
1398.791253 73.017 -121.4443
1408.927471 71.885 -133.9688
1419.137140 72.047 -95.4834
1429.420793 74.309 -68.6987
1439.778965 76.185 -83.9136
1450.212197 76.848 -103.4717
1460.721033 76.768 -122.6367
1471.306019 76.299 -129.0586
1481.967709 76.348 -88.0537
1492.706658 77.082 -94.5063
1503.523426 77.763 -109.8384
1514.418576 78.104 -125.7793
1525.392678 77.668 -145.2432
1536.446302 76.093 -162.5093
1547.580025 73.951 -156.0039
1558.794428 73.658 -125.0977
1570.090095 75.782 -119.1948
1581.467615 78.321 -120.8604
1592.927581 79.962 -151.4058
1604.470591 80.255 163.3350
1616.097246 79.661 109.9541
1627.808153 79.168 56.5283
1639.603922 79.699 14.6421
1651.485168 80.620 -18.6128
1663.452510 81.252 -44.2202
1675.506573 81.777 -63.3076
1687.647984 82.207 -81.1362
1699.877377 82.454 -97.7163
1712.195390 82.577 -114.6992
1724.602663 82.287 -135.9390
1737.099845 81.264 -159.8013
1749.687587 79.409 173.8257
1762.366544 76.738 142.4897
1775.137379 74.405 89.3643
1788.000756 75.121 18.7324
1800.957346 76.928 -20.7930
1814.007826 77.562 -47.4521
1827.152874 78.386 -50.9141
1840.393177 80.668 -46.6245
1853.729425 83.042 -59.0332
1867.162312 84.312 -81.7036
1880.692540 84.066 -104.8569
1894.320813 82.897 -116.9775
1908.047843 82.044 -120.5493
1921.874344 81.618 -129.4282
1935.801038 81.096 -138.1909
1949.828650 80.823 -141.3911
1963.957912 80.849 -121.6626
1978.189561 80.843 -132.6826
1992.524338 80.670 -158.6558
2006.962991 80.920 155.5698
2021.506272 82.261 6.5034
2036.154940 84.659 -42.4351
2050.909758 86.637 -76.2417
2065.771495 87.015 -108.5259
2080.740927 85.739 -129.7578
2095.818833 83.894 -139.2983
2111.006001 82.513 -137.4312
2126.303220 82.570 -131.1963
2141.711290 83.834 -127.4028
2157.231013 85.094 -139.8813
2172.863198 85.530 -163.5444
2188.608660 85.335 165.8213
2204.468221 84.709 119.1343
2220.442706 84.824 -10.9966
2236.532950 85.744 -79.2954
2252.739789 85.634 -113.6865
2269.064070 84.913 -122.9307
2285.506644 85.491 -118.8838
2302.068367 87.174 -124.6489
2318.750104 88.480 -145.6113
2335.552723 89.056 -171.2173
2352.477101 88.376 159.8403
2369.524119 86.485 134.9341
2386.694668 84.408 110.8486
2403.989641 83.121 24.8921
2421.409941 82.688 -108.7354
2438.956476 82.092 -135.4033
2456.630160 81.731 -147.6060
2474.431915 82.784 -132.4009
2492.362668 84.865 -132.2471
2510.423356 86.437 -151.3369
2528.614918 86.933 -175.8145
2546.938304 86.143 159.0122
2565.394469 84.084 146.8066
2583.984375 82.134 178.0410
2602.708991 82.524 -174.2764
2621.569293 83.454 166.8408
2640.566265 83.107 139.6040
2659.700897 81.933 123.5815
2678.974186 81.506 -132.2788
2698.387137 82.094 -150.8345
2717.940763 82.963 -162.8711
2737.636082 83.852 -173.5127
2757.474121 83.988 172.9741
2777.455915 84.015 172.8442
2797.582506 84.642 165.5513
2817.854942 84.772 146.6719
2838.274281 83.811 126.1147
2858.841586 82.239 105.0400
2879.557931 80.877 122.5742
2900.424394 80.760 -166.3740
2921.442065 81.559 177.3198
2942.612039 82.639 174.4888
2963.935418 84.059 176.0298
2985.413316 85.688 164.1919
3007.046852 86.631 137.9321
3028.837153 86.188 105.3472
3050.785356 84.032 75.3823
3072.892604 80.825 54.3994
3095.160050 78.574 -171.6978
3117.588856 78.106 173.0283
3140.180190 78.433 164.0557
3162.935230 79.274 154.3447
3185.855163 79.889 141.8193
3208.941182 79.750 126.0352
3232.194493 78.789 115.1812
3255.616307 78.247 112.8672
3279.207844 78.127 88.6548
3302.970336 78.105 20.2695
3326.905021 79.979 -111.4141
3351.013146 82.463 -144.9766
3375.295969 83.708 176.6157
3399.754755 83.460 138.3369
3424.390779 82.084 99.4595
3449.205326 80.046 51.5146
3474.199690 78.959 -50.0464
3499.375173 79.722 -109.5669
3524.733088 80.888 -136.0864
3550.274757 81.267 -164.2480
3576.001511 80.827 172.5361
3601.914692 79.952 157.1621
3628.015651 78.813 145.7065
3654.305748 78.044 143.4287
3680.786354 78.572 177.2988
3707.458849 79.489 -146.7080
3734.324624 80.530 -164.2085
3761.385080 81.300 -179.1855
3788.641627 82.196 -178.4829
3816.095686 83.224 164.0879
3843.748688 83.759 131.4253
3871.602076 83.341 87.4043
3899.657300 82.428 -120.6270
3927.915825 82.056 -155.5830
3956.379122 82.303 -173.7876
3985.048676 82.848 174.8701
4013.925981 83.136 156.9175
4043.012544 82.462 130.7373
4072.309879 80.546 112.0156
4101.819515 78.901 -169.2847
4131.542990 79.280 -160.6567
4161.481854 80.573 -174.8022
4191.637667 81.390 168.0239
4222.012001 80.985 147.2656
4252.606441 79.403 131.7412
4283.422580 77.455 129.3018
4314.462026 76.487 179.0996
4345.726396 77.451 -164.1494
4377.217321 78.950 -173.1938
4408.936442 79.617 171.8945
4440.885413 79.231 158.4922
4473.065899 78.011 150.8135
4505.479579 76.705 152.9536
4538.128141 76.663 173.1533
4571.013288 77.783 -176.0923
4604.136735 78.500 176.4663
4637.500207 78.781 174.4927
4671.105446 79.068 174.0767
4704.954201 79.103 172.5654
4739.048239 79.615 179.6128
4773.389336 80.531 174.5078
4807.979283 80.345 161.3228
4842.819883 79.349 165.0552
4877.912952 79.159 173.1313
4913.260320 79.537 170.1699
4948.863830 80.009 170.5679
4984.725337 80.245 167.8101
5020.846712 79.832 165.2056
5057.229836 79.699 170.2500
5093.876609 79.849 166.0898
5130.788938 79.822 167.4795
5167.968750 80.308 176.3560
5205.417982 80.683 170.7129
5243.138586 80.702 169.2310
5281.132530 81.096 176.5771
5319.401793 81.535 171.0415
5357.948371 81.338 169.0967
5396.774274 81.506 176.5601
5435.881525 82.213 173.4341
5475.272163 82.892 173.0918
5514.948243 83.454 171.7432
5554.911831 83.698 167.0195
5595.165012 83.856 160.9502
5635.709884 83.865 156.1235
5676.548561 84.128 160.8984
5717.683172 84.447 155.8433
5759.115861 84.294 149.9551
5800.848789 84.400 148.3726
5842.884130 84.589 141.4995
5885.224077 84.410 136.3560
5927.870837 84.065 130.5107
5970.826633 83.819 126.7236
6014.093704 83.652 118.4370
6057.674306 83.195 116.2295
6101.570711 82.883 121.3223
6145.785208 82.490 123.1318
6190.320101 82.125 133.7920
6235.177712 81.965 130.8408
6280.360380 81.472 128.7080
6325.870460 80.545 129.2593
6371.710325 79.475 129.0215
6417.882365 78.815 136.1387
6464.388986 78.778 144.0527
6511.232613 78.920 142.1440
6558.415689 78.585 139.4341
6605.940673 78.230 143.1978
6653.810042 78.011 140.3271
6702.026292 77.676 143.5581
6750.591937 77.815 149.1133
6799.509509 78.263 149.2358
6848.781558 78.825 152.9561
6898.410653 79.292 157.5732
6948.399380 79.629 158.8345
6998.750346 79.776 158.1895
7049.466176 79.918 162.0078
7100.549514 80.134 161.2158
7152.003023 80.277 158.0078
7203.829385 80.300 161.0703
7256.031302 80.685 165.4697
7308.611496 80.905 159.2710
7361.572708 80.842 156.7026
7414.917698 80.953 157.5605
7468.649249 81.330 158.2515
7522.770160 81.536 150.6133
7577.283253 81.068 144.5469
7632.191371 80.831 157.1436
7687.497376 81.536 162.4595
7743.204151 81.977 151.6025
7799.314600 81.436 141.6421
7855.831649 80.684 150.5679
7912.758244 80.676 158.8218
7970.097352 80.786 155.7896
8027.851962 80.901 155.4521
8086.025087 81.359 159.2241
8144.619758 81.740 152.6807
8203.639030 81.455 146.1733
8263.085980 81.134 152.3350
8322.963708 81.473 156.0718
8383.275334 81.875 151.3481
8444.024002 81.514 145.9443
8505.212881 80.844 148.1650
8566.845160 80.252 147.7661
8628.924051 79.792 149.3037
8691.452792 79.829 157.0356
8754.434642 80.313 158.2480
8817.872884 80.337 150.6836
8881.770826 79.931 154.4302
8946.131799 80.156 164.4023
9010.959157 80.595 160.5840
9076.256282 80.896 160.6675
9142.026576 81.191 159.9077
9208.273470 81.129 154.8828
9275.000415 80.731 150.2197
9342.210891 80.167 150.8857
9409.908403 79.870 153.5117
9478.096478 79.663 152.0264
9546.778672 79.165 152.2676
9615.958566 78.956 159.5688
9685.639765 79.162 161.2178
9755.825904 79.153 161.3662
9826.520640 79.284 168.1250
9897.727659 79.621 166.4106
9969.450674 79.910 166.3330
10041.693423 80.482 171.4106
10114.459673 80.732 166.3838
10187.753217 80.478 168.1777
10261.577877 80.553 168.4014
10335.937500 80.773 163.3511
10410.835964 80.822 167.5747
10486.277173 80.565 169.4668
10562.265060 79.708 166.4893
10638.803587 79.070 174.2427
10715.896743 79.204 178.1870
10793.548548 79.548 179.6323
10871.763050 80.325 -173.9434
10950.544327 81.237 -176.3916
11029.896485 82.071 -178.8213
11109.823662 82.879 176.0010
11190.330024 83.173 165.3594
11271.419768 82.870 158.5571
11353.097122 82.396 151.4102
11435.366344 81.442 142.5366
11518.231722 80.037 143.8843
11601.697577 78.711 145.4434
11685.768261 77.693 162.5894
11770.448155 77.596 174.5767
11855.741674 77.857 174.4165
11941.653265 78.304 176.6475
12028.187408 78.600 174.5332
12115.348612 78.789 173.6323
12203.141422 78.762 166.5054
12291.570415 77.963 162.0474
12380.640201 76.782 166.1680
12470.355424 75.600 168.5923
12560.720760 74.637 176.6494
12651.740920 74.505 -168.9116
12743.420650 75.360 -151.7261
12835.764729 76.430 -148.3950
12928.777972 77.155 -143.7471
13022.465227 77.909 -136.0962
13116.831378 78.841 -136.4878
13211.881345 79.860 -138.5215
13307.620084 80.607 -142.8525
13404.052584 81.436 -144.0825
13501.183875 82.140 -151.1343
13599.019019 82.286 -157.6138
13697.563116 82.203 -163.2412
13796.821305 82.007 -168.7192
13896.798760 81.740 -174.8477
13997.500692 81.037 178.6377
14098.932352 80.130 177.0459
14201.099028 79.287 175.8428
14304.006046 78.514 175.8394
14407.658770 77.681 174.7544
14512.062604 76.865 176.7119
14617.222992 76.324 179.4873
14723.145416 75.982 -179.7627
14829.835397 75.441 -176.3726
14937.298497 74.872 -170.9121
15045.540320 74.245 -167.3110
15154.566507 73.708 -163.2681
15264.382743 73.518 -152.2437
15374.994752 73.964 -143.6646
15486.408302 74.936 -138.3574
15598.629201 76.255 -136.0498
15711.663298 77.431 -140.0605
15825.516487 77.934 -148.8789
15940.194703 77.839 -157.4292
16055.703925 77.210 -164.7847
16172.050174 76.237 -168.6372
16289.239516 75.282 -167.4380
16407.278061 74.692 -164.8418
16526.171961 74.362 -163.9297
16645.927415 74.039 -164.4663
16766.550667 73.567 -165.6484
16888.048005 72.907 -165.5312
17010.425762 72.226 -162.6558
17133.690320 71.708 -158.3179
17257.848103 71.488 -152.9443
17382.905584 71.572 -149.0220
17508.869284 71.805 -145.2144
17635.745768 72.088 -141.8618
17763.541652 72.446 -139.4570
17892.263597 72.803 -138.1699
18021.918315 73.302 -138.0776
18152.512564 73.831 -141.4741
18284.053153 74.065 -148.8838
18416.546939 73.764 -157.7041
18550.000830 72.888 -166.3696
18684.421783 71.519 -172.3887
18819.816805 69.934 -174.4116
18956.192956 68.407 -175.2554
19093.557344 66.968 -172.2056
19231.917131 65.748 -169.2090
19371.279531 64.429 -170.3633
19511.651807 62.913 -170.6646
19653.041280 61.196 -172.8755
19795.455318 59.189 -171.3311
19938.901348 57.610 -164.8740
