* Measurement data measured by REW V5.31.1
* Source: Scarlett 2i4 USB, MICROPHONE, R, volume: no control
* Format: 512k Log Swept Sine, 1 sweep at -18.0 dBFS with no timing reference
* Dated: May 16, 2024 7:05:37 AM
* REW Settings:
*  C-weighting compensation: Off
*  Target level: 75.0 dB
* Note: ; 
* Measurement: bns-back12-p1-c
* Smoothing: 1/48 octave
* Frequency Step: 96 ppo
* Start Frequency: 10.093689 Hz
*
* Freq(Hz) SPL(dB) Phase(degrees)
10.093689 44.777 -13.0371
10.166832 44.975 -11.9512
10.240505 45.216 -10.8343
10.314712 45.464 -9.8077
10.389457 45.722 -8.9799
10.464743 46.009 -8.4222
10.540575 46.346 -8.0424
10.616956 46.710 -7.8322
10.693891 47.082 -7.8042
10.771383 47.447 -7.9672
10.849437 47.805 -8.3239
10.928057 48.162 -8.8336
11.007246 48.513 -9.4465
11.087009 48.855 -10.1199
11.167350 49.184 -10.8475
11.248273 49.502 -11.6524
11.329783 49.812 -12.4943
11.411883 50.120 -13.3343
11.494578 50.426 -14.1442
11.577873 50.727 -14.9403
11.661771 51.029 -15.7412
11.746277 51.337 -16.5602
11.831395 51.655 -17.3834
11.917130 51.981 -18.1710
12.003487 52.316 -18.9917
12.090469 52.659 -19.9138
12.178081 53.014 -20.9389
12.266329 53.380 -21.9931
12.355216 53.750 -23.1459
12.444747 54.120 -24.4685
12.534926 54.488 -25.9562
12.625760 54.856 -27.5496
12.717251 55.214 -29.2615
12.809406 55.555 -31.1189
12.902228 55.879 -33.1495
12.995723 56.185 -35.2910
13.089895 56.466 -37.4828
13.184750 56.717 -39.7376
13.280292 56.939 -42.1345
13.376526 57.131 -44.5516
13.473458 57.288 -46.8758
13.571093 57.408 -49.2255
13.669434 57.494 -51.5875
13.768489 57.547 -53.8074
13.868261 57.565 -55.8250
13.968756 57.549 -57.7666
14.069979 57.507 -59.5309
14.171936 57.445 -60.9929
14.274632 57.362 -62.1869
14.378072 57.268 -63.1334
14.482261 57.183 -63.8109
14.587206 57.107 -64.1375
14.692910 57.048 -64.1774
14.799381 57.021 -64.0778
14.906624 57.037 -63.8268
15.014643 57.090 -63.4144
15.123446 57.177 -63.0542
15.233036 57.298 -62.8392
15.343421 57.449 -62.6948
15.454606 57.608 -62.7007
15.566596 57.763 -62.9275
15.679398 57.915 -63.3301
15.793018 58.048 -63.8004
15.907460 58.151 -64.3295
16.022732 58.227 -64.9395
16.138840 58.276 -65.4335
16.255788 58.295 -65.7499
16.373585 58.293 -65.9340
16.492234 58.290 -65.8491
16.611744 58.300 -65.4238
16.732119 58.319 -64.7275
16.853367 58.360 -63.8395
16.975494 58.465 -62.6908
17.098505 58.627 -61.4734
17.222408 58.850 -60.4261
17.347209 59.134 -59.4662
17.472914 59.456 -58.8004
17.599530 59.798 -58.5496
17.727063 60.156 -58.6143
17.855521 60.501 -59.0152
17.984909 60.823 -59.7775
18.115235 61.115 -60.7680
18.246506 61.364 -61.8920
18.378727 61.568 -63.2026
18.511907 61.726 -64.4690
18.646052 61.834 -65.7005
18.781169 61.895 -66.8371
18.917265 61.916 -67.6621
19.054347 61.896 -68.2531
19.192423 61.854 -68.3873
19.331499 61.794 -68.0063
19.471583 61.745 -67.0600
19.612682 61.742 -65.4070
19.754804 61.804 -63.0978
19.897956 61.991 -60.3128
20.042144 62.324 -57.0967
20.187378 62.809 -54.0453
20.333664 63.459 -51.3723
20.481010 64.228 -49.3850
20.629424 65.064 -48.4740
20.778913 65.941 -48.3701
20.929486 66.796 -49.2998
21.081150 67.613 -50.9853
21.233912 68.362 -53.2777
21.387782 69.027 -56.1680
21.542767 69.602 -59.2821
21.698874 70.078 -62.6702
21.856113 70.458 -66.0501
22.014492 70.741 -69.2544
22.174018 70.940 -72.2510
22.334700 71.072 -74.6618
22.496546 71.159 -76.6004
22.659566 71.245 -77.7656
22.823766 71.360 -78.2803
22.989157 71.563 -78.2967
23.155745 71.864 -77.9204
23.323542 72.277 -77.7547
23.492554 72.783 -77.7949
23.662790 73.327 -78.5188
23.834261 73.883 -79.7536
24.006973 74.392 -81.4993
24.180938 74.843 -83.5788
24.356163 75.215 -85.6340
24.532658 75.520 -87.5808
24.710431 75.784 -88.9536
24.889493 76.053 -89.8229
25.069853 76.391 -89.9321
25.251519 76.849 -89.7800
25.434502 77.473 -89.6972
25.618811 78.236 -89.8827
25.804456 79.112 -91.0931
25.991445 80.013 -93.6329
26.179790 80.891 -97.2306
26.369500 81.680 -101.9182
26.560584 82.356 -107.3661
26.753053 82.888 -113.4421
26.946917 83.267 -119.7506
27.142185 83.482 -126.3201
27.338869 83.533 -132.5224
27.536977 83.422 -138.4908
27.736522 83.169 -143.4843
27.937512 82.811 -147.5175
28.139959 82.406 -149.9699
28.343872 82.078 -151.0023
28.549264 81.922 -150.5206
28.756143 82.047 -149.6831
28.964522 82.425 -149.2497
29.174411 82.985 -150.0766
29.385821 83.578 -152.4721
29.598763 84.118 -156.1747
29.813248 84.523 -160.9477
30.029287 84.762 -166.1414
30.246891 84.823 -171.6379
30.466073 84.709 -176.7031
30.686842 84.450 178.9036
30.909212 84.088 175.5651
31.133193 83.716 173.6450
31.358797 83.435 172.9288
31.586035 83.333 173.2146
31.814921 83.454 173.3812
32.045465 83.736 172.7935
32.277680 84.094 171.0546
32.511577 84.406 168.0763
32.747169 84.601 164.3667
32.984469 84.637 160.2335
33.223488 84.498 156.2545
33.464239 84.207 153.1192
33.706735 83.827 151.2116
33.950987 83.457 151.0569
34.197010 83.271 152.5754
34.444816 83.386 154.8187
34.694417 83.822 156.6277
34.945827 84.485 156.8718
35.199059 85.205 155.0688
35.454126 85.864 151.5858
35.711041 86.388 146.8373
35.969818 86.738 141.2161
36.230470 86.902 135.2661
36.493011 86.885 129.3663
36.757455 86.702 123.7933
37.023814 86.379 118.8476
37.292104 85.956 114.8381
37.562338 85.490 111.8884
37.834530 85.042 109.9472
38.108695 84.663 108.8300
38.384846 84.382 108.1975
38.662999 84.198 107.6504
38.943167 84.082 106.9276
39.225365 84.001 105.9838
39.509608 83.931 104.8666
39.795911 83.862 103.6536
40.084289 83.791 102.4058
40.374756 83.718 101.1438
40.667328 83.637 99.8730
40.962020 83.543 98.6421
41.258848 83.433 97.5568
41.557827 83.318 96.7426
41.858972 83.221 96.2807
42.162299 83.172 96.1670
42.467824 83.198 96.1473
42.775564 83.304 96.0548
43.085533 83.474 95.6093
43.397749 83.679 94.7033
43.712227 83.892 93.3532
44.028983 84.100 91.6332
44.348036 84.295 89.5961
44.669400 84.475 87.2434
44.993093 84.630 84.5494
45.319131 84.744 81.5132
45.647532 84.796 78.2018
45.978313 84.773 74.7598
46.311491 84.670 71.3810
46.647083 84.499 68.2572
46.985107 84.282 65.5202
47.325581 84.045 63.1974
47.668521 83.813 61.2100
48.013947 83.594 59.4234
48.361876 83.384 57.7284
48.712326 83.174 56.0992
49.065315 82.956 54.5934
49.420863 82.737 53.2941
49.778987 82.530 52.2290
50.139706 82.353 51.3171
50.503039 82.208 50.3918
50.869005 82.084 49.2889
51.237623 81.953 47.9550
51.608912 81.789 46.4909
51.982891 81.583 45.1006
52.359580 81.345 43.9765
52.739000 81.097 43.1877
53.121168 80.859 42.6587
53.506106 80.631 42.2763
53.893833 80.403 42.0405
54.284370 80.176 42.1083
54.677737 79.972 42.6649
55.073955 79.836 43.6816
55.473043 79.801 44.8059
55.875024 79.849 45.5809
56.279917 79.931 45.8061
56.687745 79.995 45.6628
57.098527 80.030 45.5647
57.512287 80.068 45.8634
57.929045 80.164 46.6310
58.348822 80.368 47.6471
58.771642 80.702 48.5135
59.197525 81.156 48.8146
59.626495 81.696 48.2175
60.058573 82.270 46.5242
60.493782 82.821 43.6980
60.932145 83.298 39.8984
61.373685 83.672 35.3914
61.818424 83.933 30.4729
62.266386 84.086 25.3881
62.717593 84.145 20.2754
63.172071 84.122 15.2303
63.629842 84.029 10.3528
64.090930 83.885 5.7490
64.555359 83.723 1.5054
65.023154 83.586 -2.4419
65.494339 83.512 -6.3787
65.968938 83.507 -10.7880
66.446976 83.537 -16.0724
66.928478 83.547 -22.3984
67.413469 83.490 -29.7000
67.901975 83.343 -37.8450
68.394021 83.108 -46.7574
68.889632 82.796 -56.5516
69.388835 82.423 -67.4512
69.891655 82.008 -79.8269
70.398118 81.581 -94.1178
70.908252 81.181 -110.8761
71.422083 80.852 -130.4229
71.939636 80.622 -152.6323
72.460941 80.490 -176.2487
72.986023 80.426 160.5852
73.514909 80.409 139.9969
74.047629 80.480 123.2628
74.584208 80.759 110.7398
75.124676 81.361 101.3942
75.669061 82.270 93.4371
76.217390 83.340 85.2820
76.769692 84.427 76.3707
77.325997 85.438 66.6616
77.886333 86.316 56.2490
78.450730 87.020 45.2957
79.019216 87.520 34.0837
79.591822 87.815 23.0919
80.168577 87.939 12.7622
80.749512 87.956 3.3718
81.334656 87.945 -5.0962
81.924040 87.960 -13.0021
82.517696 88.013 -20.8365
83.115653 88.070 -28.9789
83.717943 88.073 -37.5044
84.324598 87.975 -46.1389
84.935649 87.765 -54.4122
85.551128 87.478 -61.8476
86.171066 87.193 -68.1978
86.795497 86.996 -73.7127
87.424453 86.925 -79.1504
88.057967 86.930 -85.2366
88.696071 86.908 -92.1414
89.338800 86.772 -99.5119
89.986185 86.473 -106.6628
90.638262 86.036 -112.5129
91.295065 85.626 -115.7653
91.956626 85.552 -116.4420
92.622982 85.978 -117.3588
93.294166 86.693 -121.2994
93.970214 87.380 -128.2043
94.651161 87.879 -136.7416
95.337042 88.154 -145.9196
96.027894 88.201 -155.1206
96.723752 88.038 -163.7136
97.424652 87.720 -171.0593
98.130631 87.343 -176.7803
98.841726 87.019 179.1139
99.557974 86.852 176.2302
100.279412 86.902 173.8003
101.006078 87.150 170.9368
101.738010 87.509 167.0582
102.475245 87.874 162.0966
103.217823 88.171 156.4414
103.965782 88.384 150.7030
104.719161 88.553 145.3618
105.477999 88.749 140.4973
106.242336 89.027 135.7076
107.012212 89.383 130.2979
107.787666 89.745 123.7203
108.568740 90.016 115.9073
109.355474 90.118 107.2776
110.147909 90.019 98.4832
110.946086 89.745 90.1001
111.750047 89.349 82.2441
112.559834 88.856 74.4424
113.375489 88.213 66.1462
114.197055 87.304 57.5105
115.024574 86.021 49.8026
115.858089 84.360 45.2695
116.697645 82.499 45.9805
117.543284 80.790 51.8766
118.395051 79.607 60.9933
119.252990 79.151 70.7369
120.117147 79.303 78.1619
120.987565 79.747 82.5706
121.864291 80.297 85.3610
122.747370 80.917 86.9421
123.636848 81.593 87.1238
124.532771 82.313 85.8329
125.435187 82.964 81.4180
126.344142 83.271 73.3783
127.259684 83.049 64.0154
128.181860 82.290 55.3229
129.110718 80.997 48.0035
130.046308 79.148 43.7780
130.988677 77.080 49.9071
131.937875 76.511 90.7412
132.893951 78.576 124.6462
133.856956 81.228 126.6643
134.826938 83.315 119.4996
135.803950 84.704 109.5486
136.788041 85.507 99.5437
137.779264 85.886 90.7036
138.777669 85.988 83.4082
139.783309 85.962 77.9741
140.796237 85.943 73.6456
141.816504 85.914 68.7812
142.844165 85.755 63.3354
143.879273 85.428 58.7141
144.921881 85.028 55.8071
145.972045 84.677 54.0696
147.029819 84.404 52.2946
148.095257 84.156 50.2802
149.168417 83.945 48.8513
150.249353 83.849 47.5784
151.338121 83.842 44.6672
152.434780 83.766 39.3905
153.539385 83.443 31.8646
154.651995 82.704 22.4597
155.772667 81.400 11.7849
156.901460 79.419 -0.0323
158.038432 76.881 -14.2388
159.183644 75.194 -91.2462
160.337154 76.482 156.6960
161.499023 79.059 144.0590
162.669312 81.365 135.7001
163.848081 83.234 128.8717
165.035392 84.721 122.2864
166.231306 85.903 116.0681
167.435887 86.877 110.5969
168.649196 87.715 105.5936
169.871298 88.434 100.5437
171.102255 89.039 95.5992
172.342133 89.584 91.3450
173.590995 90.133 87.4869
174.848907 90.669 83.0300
176.115934 91.134 78.0049
177.392143 91.525 73.0626
178.677599 91.871 68.1299
179.972371 92.162 62.7723
181.276525 92.357 56.9778
182.590129 92.423 50.9976
183.913252 92.329 44.9121
185.245964 92.026 38.9122
186.588332 91.491 34.0143
187.940428 90.812 31.8677
189.302322 90.225 33.2773
190.674085 89.965 36.4524
192.055788 90.084 39.3676
193.447503 90.558 42.1320
194.849303 91.370 44.2400
196.261262 92.381 43.5830
197.683452 93.345 39.3563
199.115948 94.096 32.7678
200.558824 94.594 25.2341
202.012156 94.866 17.4011
203.476019 94.925 9.2794
204.950490 94.737 0.7943
206.435646 94.245 -7.4939
207.931564 93.439 -14.2101
209.438322 92.429 -17.5481
210.955998 91.482 -16.7327
212.484672 90.887 -13.6454
214.024424 90.737 -10.7896
215.575333 90.927 -9.3297
217.137481 91.304 -9.5465
218.710948 91.736 -11.5138
220.295818 92.112 -15.1421
221.892172 92.348 -19.9762
223.500094 92.428 -24.9525
225.119668 92.411 -29.4558
226.750978 92.358 -33.7500
228.394109 92.282 -38.3407
230.049147 92.157 -43.3363
231.716178 91.956 -48.5935
233.395289 91.656 -53.9719
235.086567 91.270 -58.9340
236.790102 90.874 -62.9657
238.505980 90.550 -67.0543
240.234293 90.237 -72.8563
241.975130 89.770 -80.4655
243.728581 89.019 -88.7061
245.494739 87.936 -96.8544
247.273695 86.467 -104.7460
249.065542 84.522 -111.0896
250.870374 82.059 -112.6082
252.688284 79.310 -103.1033
254.519367 77.284 -74.0112
256.363720 77.251 -46.8835
258.221437 78.332 -39.5068
260.092616 79.229 -39.9310
261.977354 79.697 -40.4143
263.875750 79.975 -38.1976
265.787903 80.377 -33.9664
267.713911 81.164 -28.8400
269.653877 82.526 -22.2806
271.607900 84.279 -19.1902
273.576083 85.858 -24.6851
275.558528 86.902 -35.0873
277.555338 87.459 -45.3998
279.566619 87.790 -53.8441
281.592474 88.104 -61.7361
283.633009 88.366 -71.6548
285.688331 88.327 -84.6570
287.758546 87.758 -98.8741
289.843763 86.621 -111.2751
291.944090 85.048 -120.6884
294.059638 83.155 -128.0319
296.190515 80.942 -132.6968
298.336833 78.513 -131.0343
300.498705 76.783 -110.9205
302.676243 77.416 -75.3923
304.869559 79.427 -71.0209
307.078770 81.099 -82.0803
309.303989 82.090 -96.8958
311.545334 82.510 -113.1495
313.802919 82.387 -131.8536
316.076865 81.569 -153.4432
318.367288 79.865 -176.1603
320.674309 77.309 165.4144
322.998047 75.054 -156.3746
325.338624 75.406 -110.8544
327.696162 77.152 -131.1135
330.070783 78.449 -157.6222
332.462612 79.087 175.6552
334.871773 79.275 150.4558
337.298392 79.162 127.3188
339.742595 78.802 107.1691
342.204510 78.345 92.2306
344.684265 78.229 84.5215
347.181989 78.837 80.0608
349.697813 79.931 73.0522
352.231868 81.072 63.2423
354.784285 82.026 51.7783
357.355198 82.684 39.2456
359.944741 83.026 26.6826
362.553049 83.171 15.6830
365.180258 83.261 5.4243
367.826505 83.252 -6.1447
370.491927 83.000 -18.7242
373.176665 82.461 -31.2810
375.880856 81.647 -44.2578
378.604644 80.553 -58.2332
381.348169 79.204 -74.3154
384.111575 77.704 -96.4585
386.895006 76.456 -132.4409
389.698607 76.447 169.5327
392.522524 77.798 118.0918
395.366904 79.226 83.6960
398.231895 79.884 57.0103
401.117648 79.616 37.1980
404.024312 78.909 30.2378
406.952038 79.150 42.4011
409.900981 80.879 50.8525
412.871292 82.911 45.7146
415.863128 84.505 34.0735
418.876643 85.442 18.8701
421.911996 85.568 1.5242
424.969344 84.800 -14.1792
428.048847 83.403 -21.1428
431.150666 82.261 -14.9177
434.274961 81.939 -13.5054
437.421897 81.535 -23.0518
440.591636 80.467 -28.7988
443.784345 79.807 -13.1201
447.000189 81.127 13.5178
450.239337 83.214 14.2556
453.501956 84.544 0.6980
456.788219 84.807 -14.6077
460.098294 84.332 -24.4590
463.432356 84.230 -19.3047
466.790578 85.699 -5.5149
470.173135 87.832 -9.0327
473.580203 89.452 -24.5835
477.011961 90.283 -43.9451
480.468586 90.396 -63.7974
483.950259 89.940 -82.6150
487.457163 89.078 -100.7122
490.989478 87.834 -119.9067
494.547390 86.119 -140.8804
498.131084 83.921 -165.9138
501.740748 81.638 154.7358
505.376568 80.665 -3.3037
509.038735 81.445 -47.5398
512.727439 82.688 -73.9673
516.442874 83.879 -95.6228
520.185232 84.744 -119.4878
523.954708 84.928 -146.7744
527.751500 84.231 -174.7273
531.575805 82.675 162.0073
535.427822 81.210 155.0811
539.307753 82.188 171.5491
543.215800 84.942 168.5330
547.152165 87.239 145.7908
551.117055 88.521 118.1438
555.110677 88.940 92.1982
559.133237 88.716 68.9941
563.184947 87.818 48.2368
567.266018 86.291 35.9348
571.376661 85.068 39.6091
575.517092 85.454 47.3550
579.687526 86.843 43.2556
583.888181 88.016 30.4102
588.119275 88.480 13.3967
592.381030 88.065 -4.3533
596.673667 86.789 -18.7290
600.997410 84.957 -24.3484
605.352485 83.631 -10.6448
609.739119 83.887 0.6826
614.157540 84.471 -8.1062
618.607979 84.114 -21.5208
623.090667 83.005 -24.2214
627.605839 82.811 -3.6326
632.153730 84.445 11.2820
636.734576 86.375 5.7292
641.348617 87.943 -4.2041
645.996094 89.474 -12.6946
650.677248 90.928 -25.7463
655.392323 91.860 -45.5125
660.141566 91.964 -69.1514
664.925224 91.115 -93.3748
669.743546 89.334 -114.1741
674.596784 86.896 -128.0359
679.485191 84.424 -136.3921
684.409020 82.760 -145.6082
689.368530 82.324 -162.0098
694.363979 82.436 169.2690
699.395626 82.169 133.9595
704.463736 81.485 103.6985
709.568570 81.150 84.3394
714.710396 81.939 76.4661
719.889483 83.584 70.5164
725.106099 85.035 56.7083
730.360516 85.947 42.1316
735.653010 86.519 30.3750
740.983855 87.511 27.6084
746.353329 89.257 25.3989
751.761713 90.762 10.8962
757.209288 91.246 -9.8682
762.696339 90.695 -27.9839
768.223151 89.536 -39.7295
773.790013 88.385 -45.1340
779.397214 88.098 -41.8674
785.045047 88.867 -43.9592
790.733808 89.329 -62.1008
796.463791 88.533 -85.1824
802.235296 86.515 -105.9229
808.048623 83.908 -128.2952
813.904077 82.257 63.4873
819.801961 82.714 13.5532
825.742584 83.871 -4.2542
831.726255 85.384 -10.3057
837.753287 87.193 -17.1619
843.823992 88.889 -27.9297
849.938689 90.103 -44.2371
856.097695 90.446 -65.6172
862.301332 89.987 -87.7559
868.549922 88.854 -114.1401
874.843793 86.960 -148.9080
881.183272 85.243 111.7793
887.568689 85.513 18.3564
894.000378 86.820 -11.3887
900.478673 87.930 -31.0400
907.003913 88.942 -44.1421
913.576437 89.739 -59.6533
920.196588 89.567 -79.9590
926.864712 88.316 -91.7148
933.581156 87.069 -91.3472
940.346270 86.402 -98.1519
947.160407 85.486 -110.0708
954.023921 83.895 -116.2891
960.937172 82.057 -115.2725
967.900519 80.523 -110.9385
974.914325 79.806 -103.6143
981.978956 79.956 -99.7866
989.094780 79.942 -112.5898
996.262169 79.599 -126.5576
1003.481495 80.618 -9.2236
1010.753136 82.437 -24.6558
1018.077470 83.741 -42.4697
1025.454879 84.813 -52.1055
1032.885748 85.903 -61.4126
1040.370463 86.844 -72.7739
1047.909417 87.910 -78.6655
1055.503000 89.005 -89.5938
1063.151610 88.942 -114.0596
1070.855645 87.259 -133.1543
1078.615506 84.994 -121.8799
1086.431599 83.801 -113.1719
1094.304330 82.856 -126.4082
1102.234110 81.263 -128.9072
1110.221353 80.531 -103.2065
1118.266475 81.980 -88.0977
1126.369895 84.266 -85.3945
1134.532035 85.792 -101.0547
1142.753322 86.084 -120.4746
1151.034184 85.721 -133.9316
1159.375052 85.254 -147.4888
1167.776361 84.348 -164.6318
1176.238550 82.905 179.1069
1184.762060 81.287 159.7622
1193.347334 79.486 125.3716
1201.994821 77.305 48.1084
1210.704971 75.907 -32.8472
1219.478238 76.917 -47.5596
1228.315080 78.953 -59.9775
1237.215957 80.524 -75.0679
1246.181334 81.546 -89.5381
1255.211678 82.008 -103.7148
1264.307459 82.002 -116.5962
1273.469152 81.452 -128.9424
1282.697235 80.466 -135.5815
1291.992188 79.552 -138.1475
1301.354495 79.264 -136.6860
1310.784647 79.831 -137.3931
1320.283132 80.266 -151.2554
1329.850448 79.508 -169.2271
1339.487093 77.774 -171.0757
1349.193569 75.894 -173.6294
1358.970381 73.895 178.1426
1368.818041 72.531 172.3438
1378.737061 72.764 -96.3965
1388.727958 73.649 -97.5732
1398.791253 73.483 -121.9204
1408.927471 72.379 -136.4893
1419.137140 72.056 -113.8794
1429.420793 73.864 -69.5625
1439.778965 75.770 -83.2017
1450.212197 76.617 -102.8354
1460.721033 76.705 -122.3774
1471.306019 76.229 -127.4189
1481.967709 76.088 -93.1265
1492.706658 76.581 -98.4146
1503.523426 77.208 -110.9805
1514.418576 77.591 -125.4131
1525.392678 77.246 -143.7583
1536.446302 75.756 -160.3203
1547.580025 73.502 -160.6187
1558.794428 72.734 -137.5430
1570.090095 74.995 -117.7998
1581.467615 77.820 -113.9502
1592.927581 79.519 -146.0005
1604.470591 79.905 167.4277
1616.097246 79.585 112.2856
1627.808153 79.773 57.1851
1639.603922 80.794 12.3066
1651.485168 81.587 -23.7256
1663.452510 81.757 -50.7793
1675.506573 81.781 -68.6836
1687.647984 82.036 -83.6538
1699.877377 82.340 -99.1045
1712.195390 82.567 -115.3003
1724.602663 82.468 -135.8623
1737.099845 81.713 -160.2349
1749.687587 80.207 171.1143
1762.366544 77.944 133.8774
1775.137379 75.523 71.1821
1788.000756 74.878 3.6191
1800.957346 76.020 -31.2661
1814.007826 76.867 -53.0508
1827.152874 78.275 -47.4502
1840.393177 80.790 -43.8154
1853.729425 82.972 -60.1982
1867.162312 84.085 -83.3535
1880.692540 83.763 -106.3301
1894.320813 82.539 -117.6343
1908.047843 81.793 -117.3945
1921.874344 81.623 -125.7490
1935.801038 81.326 -137.0742
1949.828650 81.408 -138.7983
1963.957912 81.810 -114.8789
1978.189561 81.898 -129.6406
1992.524338 81.683 -157.4302
2006.962991 81.733 156.9136
2021.506272 82.667 14.3843
2036.154940 84.604 -42.5615
2050.909758 86.295 -77.3667
2065.771495 86.642 -108.8335
2080.740927 85.490 -129.4121
2095.818833 83.908 -137.9971
2111.006001 83.061 -133.5830
2126.303220 83.434 -132.4741
2141.711290 84.383 -131.8594
2157.231013 85.392 -142.4639
2172.863198 85.675 -166.7837
2188.608660 85.474 162.3789
2204.468221 84.896 112.6802
2220.442706 84.795 -8.5186
2236.532950 85.557 -75.8711
2252.739789 85.494 -110.1538
2269.064070 84.912 -119.6973
2285.506644 85.619 -117.3525
2302.068367 87.373 -124.5527
2318.750104 88.658 -146.0845
2335.552723 89.172 -171.4819
2352.477101 88.488 159.5400
2369.524119 86.534 133.6929
2386.694668 84.274 111.2075
2403.989641 82.712 112.6685
2421.409941 82.028 -110.9819
2438.956476 81.516 -135.3999
2456.630160 81.428 -147.8188
2474.431915 82.584 -133.1904
2492.362668 84.698 -131.6299
2510.423356 86.432 -150.0059
2528.614918 87.048 -175.1787
2546.938304 86.316 158.3477
2565.394469 84.185 142.1196
2583.984375 81.936 172.4321
2602.708991 82.253 -170.6455
2621.569293 83.219 170.0815
2640.566265 82.876 142.7832
2659.700897 81.926 118.2695
2678.974186 81.742 -118.1064
2698.387137 82.375 -140.6733
2717.940763 83.149 -157.4146
2737.636082 83.950 -171.5391
2757.474121 84.032 174.0693
2777.455915 83.798 171.5171
2797.582506 84.100 165.5996
2817.854942 84.303 150.6147
2838.274281 83.827 132.0771
2858.841586 82.783 109.0186
2879.557931 81.685 110.1426
2900.424394 81.844 -159.7603
2921.442065 82.675 177.9219
2942.612039 83.242 169.5220
2963.935418 84.203 175.1426
2985.413316 85.718 165.1309
3007.046852 86.590 139.3525
3028.837153 86.190 107.8516
3050.785356 84.368 78.1172
3072.892604 81.778 58.7222
3095.160050 79.958 173.0796
3117.588856 79.263 156.8335
3140.180190 78.423 152.0859
3162.935230 78.159 151.1372
3185.855163 78.825 145.0894
3208.941182 79.449 129.1709
3232.194493 79.296 109.7031
3255.616307 78.880 111.0195
3279.207844 78.594 97.7803
3302.970336 78.357 48.7002
3326.905021 79.865 -100.6523
3351.013146 82.268 -140.8799
3375.295969 83.526 178.4624
3399.754755 83.181 138.7417
3424.390779 81.778 98.5137
3449.205326 79.969 44.0640
3474.199690 78.820 -61.6006
3499.375173 79.176 -111.8647
3524.733088 80.335 -136.8872
3550.274757 81.097 -162.6890
3576.001511 81.169 174.5005
3601.914692 80.554 158.8784
3628.015651 79.408 149.1157
3654.305748 78.475 153.7031
3680.786354 78.510 170.6567
3707.458849 79.167 -149.6421
3734.324624 80.354 -160.5723
3761.385080 81.209 -176.3423
3788.641627 82.225 -178.4746
3816.095686 83.578 165.5117
3843.748688 84.335 133.1489
3871.602076 83.936 91.9507
3899.657300 82.931 -129.9185
3927.915825 82.300 -160.8965
3956.379122 82.359 -176.0312
3985.048676 82.927 172.3862
4013.925981 83.221 154.4443
4043.012544 82.605 128.7676
4072.309879 80.527 109.8374
4101.819515 78.360 178.3271
4131.542990 78.611 -163.2349
4161.481854 79.902 -177.1938
4191.637667 80.567 165.3174
4222.012001 80.310 146.5151
4252.606441 79.103 130.3369
4283.422580 77.522 125.4146
4314.462026 76.783 -173.1299
4345.726396 77.841 -158.2207
4377.217321 79.360 -169.5635
4408.936442 79.856 173.6792
4440.885413 79.370 159.5322
4473.065899 78.089 151.3843
4505.479579 76.686 160.7290
4538.128141 76.586 177.6519
4571.013288 77.676 -176.3359
4604.136735 78.631 177.9668
4637.500207 79.188 176.6230
4671.105446 79.542 175.2163
4704.954201 79.590 173.9507
4739.048239 80.030 179.9214
4773.389336 80.763 172.7905
4807.979283 80.504 159.6475
4842.819883 79.413 161.5620
4877.912952 78.903 167.6221
4913.260320 79.013 166.7168
4948.863830 79.507 169.3589
4984.725337 79.901 167.1724
5020.846712 79.633 165.6436
5057.229836 79.682 172.5542
5093.876609 79.904 168.1123
5130.788938 79.690 168.4014
5167.968750 80.044 176.0488
5205.417982 80.474 171.2129
5243.138586 80.396 168.1450
5281.132530 80.603 174.4331
5319.401793 80.948 170.4121
5357.948371 80.819 170.9897
5396.774274 81.218 179.5566
5435.881525 82.129 177.2529
5475.272163 83.017 177.6240
5514.948243 83.718 174.2090
5554.911831 83.982 168.0259
5595.165012 84.121 161.5205
5635.709884 84.132 155.9541
5676.548561 84.410 160.0161
5717.683172 84.775 154.7305
5759.115861 84.672 149.8442
5800.848789 84.917 149.7397
5842.884130 85.248 142.4189
5885.224077 85.105 136.5269
5927.870837 84.733 129.3857
5970.826633 84.369 123.2832
6014.093704 83.905 113.1924
6057.674306 82.918 107.2515
6101.570711 82.102 111.7935
6145.785208 81.559 115.5713
6190.320101 81.249 134.8394
6235.177712 81.451 137.5542
6280.360380 81.257 133.1064
6325.870460 80.353 131.1436
6371.710325 79.287 131.8574
6417.882365 78.707 137.3691
6464.388986 78.691 144.3120
6511.232613 78.874 142.0713
6558.415689 78.610 139.1128
6605.940673 78.310 143.2617
6653.810042 78.005 139.2681
6702.026292 77.368 140.4009
6750.591937 76.963 145.1670
6799.509509 77.064 148.8716
6848.781558 77.770 155.9937
6898.410653 78.545 162.3291
6948.399380 79.117 163.9023
6998.750346 79.461 164.4390
7049.466176 79.890 167.8735
7100.549514 80.206 163.3950
7152.003023 80.280 159.3799
7203.829385 80.391 162.8862
7256.031302 80.928 167.2964
7308.611496 81.061 159.7607
7361.572708 80.733 157.6675
7414.917698 80.901 161.6890
7468.649249 81.594 162.0327
7522.770160 81.952 152.6548
7577.283253 81.450 145.2632
7632.191371 81.138 158.2305
7687.497376 81.791 162.5581
7743.204151 82.105 151.5718
7799.314600 81.427 143.6045
7855.831649 80.814 155.4160
7912.758244 81.124 160.4722
7970.097352 81.332 154.9375
8027.851962 81.336 152.9028
8086.025087 81.683 157.0649
8144.619758 82.030 150.9351
8203.639030 81.669 143.9814
8263.085980 81.092 148.1636
8322.963708 81.098 151.2534
8383.275334 81.297 147.8066
8444.024002 80.812 145.4395
8505.212881 80.186 151.4829
8566.845160 79.961 151.9556
8628.924051 79.932 151.3105
8691.452792 80.171 157.6597
8754.434642 80.679 158.3828
8817.872884 80.660 150.9863
8881.770826 80.318 155.1138
8946.131799 80.549 160.8511
9010.959157 80.807 156.5557
9076.256282 80.864 156.2695
9142.026576 80.950 155.6421
9208.273470 80.705 151.2344
9275.000415 80.181 149.0039
9342.210891 79.750 151.5469
9409.908403 79.742 154.7178
9478.096478 79.799 152.7651
9546.778672 79.383 152.0132
9615.958566 79.108 156.7559
9685.639765 79.159 157.1289
9755.825904 79.088 158.2417
9826.520640 79.279 166.3862
9897.727659 79.635 164.1592
9969.450674 79.911 163.9321
10041.693423 80.488 168.3276
10114.459673 80.604 161.5928
10187.753217 80.056 165.2144
10261.577877 79.967 167.7295
10335.937500 80.151 162.5903
10410.835964 80.197 166.9971
10486.277173 79.997 169.6523
10562.265060 79.226 168.6445
10638.803587 78.818 178.0684
10715.896743 79.134 -179.7764
10793.548548 79.535 -178.7759
10871.763050 80.374 -171.3428
10950.544327 81.322 -174.5786
11029.896485 82.091 -179.3608
11109.823662 82.644 173.1328
11190.330024 82.589 163.0117
11271.419768 82.046 160.1885
11353.097122 81.588 156.9531
11435.366344 80.908 150.8745
11518.231722 80.023 152.2671
11601.697577 79.131 152.3823
11685.768261 78.435 167.8003
11770.448155 78.396 173.5728
11855.741674 78.409 171.1167
11941.653265 78.550 172.2759
12028.187408 78.654 171.1118
12115.348612 78.834 171.3623
12203.141422 78.826 164.0220
12291.570415 77.955 159.1323
12380.640201 76.646 164.3403
12470.355424 75.535 169.7964
12560.720760 74.781 176.0122
12651.740920 74.523 -173.5850
12743.420650 75.118 -153.4663
12835.764729 76.136 -149.1201
12928.777972 76.708 -147.9668
13022.465227 77.096 -142.2769
13116.831378 77.810 -138.2710
13211.881345 78.898 -136.7163
13307.620084 79.840 -139.3516
13404.052584 80.848 -139.9419
13501.183875 81.638 -146.8940
13599.019019 81.984 -153.5815
13697.563116 82.024 -161.0610
13796.821305 81.716 -166.9854
13896.798760 81.341 -171.9658
13997.500692 80.676 -176.8496
14098.932352 79.932 -177.4565
14201.099028 79.294 -178.0820
14304.006046 78.773 -178.3960
14407.658770 78.159 179.1875
14512.062604 77.421 178.9434
14617.222992 76.771 -179.0986
14723.145416 76.264 -178.6025
14829.835397 75.661 -175.8848
14937.298497 75.120 -171.3057
15045.540320 74.561 -166.9282
15154.566507 74.056 -162.6611
15264.382743 73.860 -151.4775
15374.994752 74.282 -143.4521
15486.408302 75.177 -139.6406
15598.629201 76.427 -136.6978
15711.663298 77.601 -139.9512
15825.516487 78.136 -148.4746
15940.194703 78.100 -157.1187
16055.703925 77.545 -164.6899
16172.050174 76.615 -169.2710
16289.239516 75.636 -168.6782
16407.278061 75.020 -165.8384
16526.171961 74.723 -165.0229
16645.927415 74.404 -166.4971
16766.550667 73.864 -168.0161
16888.048005 73.138 -167.8062
17010.425762 72.399 -165.1948
17133.690320 71.863 -160.0991
17257.848103 71.745 -153.9229
17382.905584 71.905 -150.9238
17508.869284 72.133 -148.0542
17635.745768 72.330 -145.1372
17763.541652 72.554 -142.9062
17892.263597 72.833 -141.2109
18021.918315 73.303 -141.2764
18152.512564 73.806 -145.0356
18284.053153 73.992 -152.7935
18416.546939 73.644 -161.8364
18550.000830 72.711 -170.1548
18684.421783 71.295 -175.5752
18819.816805 69.731 -177.1177
18956.192956 68.297 -178.6621
19093.557344 66.805 -177.5015
19231.917131 65.313 -174.3950
19371.279531 63.753 -173.3047
19511.651807 62.163 -171.4380
19653.041280 60.526 -173.2827
19795.455318 58.563 -172.6377
19938.901348 56.885 -166.6621
