* Measurement data measured by REW V5.31.1
* Source: Scarlett 2i4 USB, MICROPHONE, R, volume: no control
* Format: 512k Log Swept Sine, 1 sweep at -18.0 dBFS with no timing reference
* Dated: May 16, 2024 6:41:28 AM
* REW Settings:
*  C-weighting compensation: Off
*  Target level: 75.0 dB
* Note: ; 
* Measurement: bns-before-p1-c
* Smoothing: 1/48 octave
* Frequency Step: 96 ppo
* Start Frequency: 10.093689 Hz
*
* Freq(Hz) SPL(dB) Phase(degrees)
10.093689 42.223 -1.7380
10.166832 42.534 0.0699
10.240505 42.909 1.9129
10.314712 43.297 3.5522
10.389457 43.695 4.8031
10.464743 44.126 5.5550
10.540575 44.609 5.9308
10.616956 45.116 6.0319
10.693891 45.617 5.9319
10.771383 46.084 5.6922
10.849437 46.514 5.2349
10.928057 46.917 4.6036
11.007246 47.298 3.9639
11.087009 47.658 3.4591
11.167350 47.992 3.1054
11.248273 48.299 2.7800
11.329783 48.597 2.5630
11.411883 48.905 2.5354
11.494578 49.233 2.7654
11.577873 49.572 3.2147
11.661771 49.933 3.7573
11.746277 50.334 4.2713
11.831395 50.789 4.7456
11.917130 51.293 5.3265
12.003487 51.836 5.7570
12.090469 52.406 5.8010
12.178081 53.003 5.4535
12.266329 53.629 4.9600
12.355216 54.266 4.1536
12.444747 54.889 2.8855
12.534926 55.495 1.2039
12.625760 56.088 -0.7168
12.717251 56.655 -2.8853
12.809406 57.184 -5.3461
12.902228 57.674 -8.1316
12.995723 58.127 -11.1103
13.089895 58.536 -14.1808
13.184750 58.897 -17.3826
13.280292 59.211 -20.8451
13.376526 59.477 -24.3700
13.473458 59.692 -27.7983
13.571093 59.856 -31.3546
13.669434 59.968 -35.0200
13.768489 60.028 -38.5533
13.868261 60.035 -41.9001
13.968756 59.987 -45.3126
14.069979 59.889 -48.5937
14.171936 59.741 -51.5140
14.274632 59.540 -54.2440
14.378072 59.296 -56.7533
14.482261 59.021 -58.8497
14.587206 58.710 -60.4415
14.692910 58.380 -61.5888
14.799381 58.064 -62.3036
14.906624 57.773 -62.4291
15.014643 57.514 -61.9497
15.123446 57.322 -61.1797
15.233036 57.226 -60.2160
15.343421 57.216 -58.9627
15.454606 57.279 -57.8463
15.566596 57.414 -57.1040
15.679398 57.613 -56.5980
15.793018 57.833 -56.4436
15.907460 58.048 -56.7398
16.022732 58.260 -57.4005
16.138840 58.446 -58.2319
16.255788 58.590 -59.2332
16.373585 58.695 -60.4061
16.492234 58.761 -61.4628
16.611744 58.782 -62.3889
16.732119 58.793 -63.2004
16.853367 58.798 -63.7078
16.975494 58.799 -63.8773
17.098505 58.805 -63.7836
17.222408 58.842 -63.4531
17.347209 58.929 -62.8321
17.472914 59.068 -62.1599
17.599530 59.267 -61.5637
17.727063 59.516 -61.0075
17.855521 59.794 -60.7170
17.984909 60.097 -60.7086
18.115235 60.405 -60.9248
18.246506 60.695 -61.3845
18.378727 60.966 -62.0803
18.511907 61.205 -62.8142
18.646052 61.404 -63.6055
18.781169 61.567 -64.3601
18.917265 61.696 -64.8008
19.054347 61.794 -64.9899
19.192423 61.882 -65.0975
19.331499 61.968 -64.5814
19.471583 62.077 -63.6440
19.612682 62.243 -62.2292
19.754804 62.477 -60.4101
19.897956 62.810 -58.4602
20.042144 63.253 -56.3800
20.187378 63.795 -54.6111
20.333664 64.429 -53.2626
20.481010 65.128 -52.4499
20.629424 65.854 -52.4155
20.778913 66.592 -52.9529
20.929486 67.302 -54.1822
21.081150 67.973 -55.9564
21.233912 68.585 -58.1216
21.387782 69.128 -60.7080
21.542767 69.594 -63.4104
21.698874 69.978 -66.2543
21.856113 70.284 -69.0251
22.014492 70.515 -71.5503
22.174018 70.685 -73.8175
22.334700 70.813 -75.5155
22.496546 70.925 -76.7455
22.659566 71.066 -77.3522
22.823766 71.256 -77.4519
22.989157 71.541 -77.3279
23.155745 71.920 -77.0579
23.323542 72.384 -77.1948
23.492554 72.910 -77.6743
23.662790 73.443 -78.8092
23.834261 73.960 -80.4247
24.006973 74.416 -82.4040
24.180938 74.802 -84.6116
24.356163 75.107 -86.6314
24.532658 75.351 -88.4125
24.710431 75.566 -89.4709
24.889493 75.806 -89.9177
25.069853 76.146 -89.5467
25.251519 76.633 -88.9483
25.434502 77.308 -88.3350
25.618811 78.128 -88.6305
25.804456 79.051 -89.8771
25.991445 79.984 -92.5273
26.179790 80.876 -96.2782
26.369500 81.666 -101.0785
26.560584 82.332 -106.6058
26.753053 82.848 -112.6836
26.946917 83.207 -118.9283
27.142185 83.401 -125.3408
27.338869 83.435 -131.3022
27.536977 83.315 -136.9154
27.736522 83.069 -141.4658
27.937512 82.747 -144.9796
28.139959 82.418 -146.9142
28.343872 82.205 -147.6120
28.549264 82.192 -147.1296
28.756143 82.442 -146.7273
28.964522 82.901 -146.9947
29.174411 83.482 -148.5965
29.385821 84.057 -151.5969
29.598763 84.557 -155.7375
29.813248 84.919 -160.7370
30.029287 85.127 -166.0337
30.246891 85.173 -171.5255
30.466073 85.072 -176.5889
30.686842 84.853 178.9124
30.909212 84.555 175.2442
31.133193 84.245 172.5579
31.358797 83.982 170.6503
31.586035 83.807 169.3756
31.814921 83.733 168.1209
32.045465 83.721 166.6705
32.277680 83.726 164.8491
32.511577 83.688 162.7693
32.747169 83.585 160.8220
32.984469 83.425 159.2859
33.223488 83.252 158.6191
33.464239 83.158 158.8715
33.706735 83.218 159.7430
33.950987 83.481 160.7148
34.197010 83.917 160.8768
34.444816 84.440 159.8590
34.694417 84.966 157.6489
34.945827 85.421 154.3820
35.199059 85.766 150.4859
35.454126 85.994 146.3132
35.711041 86.114 142.1046
35.969818 86.147 138.0928
36.230470 86.127 134.4181
36.493011 86.080 131.0415
36.757455 86.024 127.8890
37.023814 85.965 124.8547
37.292104 85.899 121.8221
37.562338 85.810 118.7629
37.834530 85.685 115.7322
38.108695 85.518 112.8217
38.384846 85.313 110.1509
38.662999 85.081 107.8408
38.943167 84.847 105.9427
39.225365 84.634 104.4087
39.509608 84.458 103.1220
39.795911 84.325 101.9248
40.084289 84.226 100.6623
40.374756 84.143 99.2373
40.667328 84.051 97.6556
40.962020 83.932 96.0317
41.258848 83.780 94.5352
41.557827 83.606 93.3410
41.858972 83.432 92.5740
42.162299 83.291 92.2545
42.467824 83.216 92.2651
42.775564 83.222 92.3778
43.085533 83.308 92.3429
43.397749 83.454 91.9852
43.712227 83.637 91.2383
44.028983 83.840 90.1041
44.348036 84.051 88.5892
44.669400 84.262 86.6736
44.993093 84.456 84.3259
45.319131 84.615 81.5442
45.647532 84.717 78.3930
45.978313 84.742 75.0118
46.311491 84.685 71.5932
46.647083 84.549 68.3403
46.985107 84.353 65.4171
47.325581 84.122 62.9059
47.668521 83.882 60.7901
48.013947 83.651 58.9780
48.361876 83.434 57.3575
48.712326 83.231 55.8512
49.065315 83.037 54.4355
49.420863 82.852 53.1185
49.778987 82.680 51.8970
50.139706 82.524 50.7263
50.503039 82.384 49.5271
50.869005 82.252 48.2241
51.237623 82.111 46.7945
51.608912 81.948 45.2913
51.982891 81.754 43.8228
52.359580 81.532 42.4988
52.739000 81.290 41.3762
53.121168 81.036 40.4507
53.506106 80.768 39.7163
53.893833 80.482 39.2496
54.284370 80.185 39.2408
54.677737 79.910 39.8972
55.073955 79.712 41.2198
55.473043 79.639 42.8339
55.875024 79.690 44.1429
56.279917 79.808 44.7488
56.687745 79.922 44.6975
57.098527 79.992 44.4108
57.512287 80.031 44.3878
57.929045 80.093 44.9026
58.348822 80.243 45.8692
58.771642 80.523 46.8918
59.197525 80.932 47.4862
59.626495 81.440 47.2882
60.058573 82.001 46.1018
60.493782 82.566 43.8600
60.932145 83.089 40.6331
61.373685 83.536 36.5910
61.818424 83.885 31.9593
62.266386 84.131 26.9711
62.717593 84.274 21.8097
63.172071 84.322 16.6511
63.629842 84.287 11.6819
64.090930 84.196 7.0614
64.555359 84.090 2.8910
65.023154 84.019 -0.9061
65.494339 84.025 -4.6216
65.968938 84.119 -8.7329
66.446976 84.278 -13.6605
66.928478 84.455 -19.6619
67.413469 84.600 -26.8013
67.901975 84.678 -35.0235
68.394021 84.669 -44.2223
68.889632 84.567 -54.3499
69.388835 84.383 -65.3596
69.891655 84.140 -77.3407
70.398118 83.876 -90.4500
70.908252 83.631 -105.0059
71.422083 83.433 -121.2919
71.939636 83.285 -139.4447
72.460941 83.163 -159.0662
72.986023 83.037 -179.3657
73.514909 82.890 160.9482
74.047629 82.747 143.0706
74.584208 82.687 127.8947
75.124676 82.823 115.5424
75.669061 83.230 105.3409
76.217390 83.883 96.1019
76.769692 84.681 86.8775
77.325997 85.508 77.1878
77.886333 86.271 66.9586
78.450730 86.913 56.3683
79.019216 87.405 45.6953
79.591822 87.749 35.2901
80.168577 87.969 25.4431
80.749512 88.110 16.3907
81.334656 88.241 8.2561
81.924040 88.435 0.8320
82.517696 88.733 -6.4742
83.115653 89.102 -14.3682
83.717943 89.451 -23.2147
84.324598 89.691 -32.8066
84.935649 89.776 -42.5677
85.551128 89.719 -51.8121
86.171066 89.597 -59.9907
86.795497 89.526 -67.0444
87.424453 89.598 -73.6536
88.057967 89.799 -80.8243
88.696071 90.029 -89.1225
89.338800 90.173 -98.4625
89.986185 90.146 -108.3583
90.638262 89.908 -118.0483
91.295065 89.487 -126.4352
91.956626 89.041 -132.3885
92.622982 88.839 -135.9891
93.294166 89.042 -139.4885
93.970214 89.498 -145.2711
94.651161 89.929 -153.5745
95.337042 90.164 -163.2695
96.027894 90.167 -173.2318
96.723752 89.967 177.2070
97.424652 89.606 168.3733
98.130631 89.122 160.4863
98.841726 88.558 153.7533
99.557974 87.969 148.3051
100.279412 87.417 144.1530
101.006078 86.970 141.1731
101.738010 86.688 138.9182
102.475245 86.574 136.5933
103.217823 86.560 133.6580
103.965782 86.568 130.2871
104.719161 86.577 127.0277
105.477999 86.634 124.2802
106.242336 86.824 121.9702
107.012212 87.194 119.3274
107.787666 87.691 115.2172
108.568740 88.168 109.0142
109.355474 88.477 101.0701
110.147909 88.543 92.3575
110.946086 88.382 83.8309
111.750047 88.066 75.7997
112.559834 87.640 67.7316
113.375489 87.055 58.8594
114.197055 86.176 49.0765
115.024574 84.849 39.4537
115.858089 82.987 32.3275
116.697645 80.652 30.6989
117.543284 78.126 37.0991
118.395051 76.024 53.3688
119.252990 75.215 74.5778
120.117147 75.693 88.0576
120.987565 76.628 94.6267
121.864291 77.673 99.5543
122.747370 78.838 103.4215
123.636848 80.086 105.0125
124.532771 81.299 103.6980
125.435187 82.312 99.0803
126.344142 82.945 91.5312
127.259684 83.074 82.5596
128.181860 82.675 74.1177
129.110718 81.803 67.5012
130.046308 80.512 63.5037
130.988677 79.013 66.3140
131.937875 78.375 86.8193
132.893951 79.766 112.7397
133.856956 82.056 118.8599
134.826938 84.001 113.4854
135.803950 85.289 104.0092
136.788041 85.983 94.1892
137.779264 86.269 85.7417
138.777669 86.327 78.9270
139.783309 86.305 73.5547
140.796237 86.282 68.5466
141.816504 86.183 62.5254
142.844165 85.864 56.1018
143.879273 85.322 51.2914
144.921881 84.725 49.0059
145.972045 84.245 48.0458
147.029819 83.888 46.5107
148.095257 83.518 44.0288
149.168417 83.082 42.2773
150.249353 82.720 42.1417
151.338121 82.567 41.6824
152.434780 82.532 38.6067
153.539385 82.368 32.0929
154.651995 81.814 22.5242
155.772667 80.681 10.6213
156.901460 78.868 -3.9851
158.038432 76.590 -26.0018
159.183644 75.319 -111.8489
160.337154 76.731 174.6306
161.499023 79.262 156.9515
162.669312 81.632 147.4567
163.848081 83.670 140.2809
165.035392 85.399 133.3184
166.231306 86.854 126.2043
167.435887 88.071 118.9480
168.649196 89.060 111.3663
169.871298 89.804 103.4097
171.102255 90.306 95.7502
172.342133 90.641 89.1815
173.590995 90.894 83.5902
174.848907 91.085 78.2601
176.115934 91.198 73.3179
177.392143 91.307 69.8396
178.677599 91.551 67.5305
179.972371 91.934 64.2604
181.276525 92.306 59.1901
182.590129 92.545 53.1298
183.913252 92.600 46.6093
185.245964 92.416 39.6740
186.588332 91.923 33.0247
187.940428 91.116 28.4546
189.302322 90.180 28.5724
190.674085 89.556 34.2589
192.055788 89.646 41.6359
193.447503 90.406 46.6572
194.849303 91.521 48.3234
196.261262 92.682 46.1692
197.683452 93.671 40.7761
199.115948 94.403 33.7219
200.558824 94.903 26.1796
202.012156 95.222 18.4572
203.476019 95.375 10.2623
204.950490 95.307 1.2490
206.435646 94.926 -8.2440
207.931564 94.167 -16.9486
209.438322 93.066 -22.8057
210.955998 91.829 -24.1086
212.484672 90.772 -21.7078
214.024424 90.116 -17.9868
215.575333 89.915 -13.9755
217.137481 90.166 -10.0344
218.710948 90.785 -7.8583
220.295818 91.538 -9.2235
221.892172 92.168 -13.8531
223.500094 92.569 -19.7294
225.119668 92.784 -25.5669
226.750978 92.870 -31.5317
228.394109 92.826 -37.9705
230.049147 92.629 -44.5253
231.716178 92.294 -50.6067
233.395289 91.859 -56.2418
235.086567 91.346 -61.4404
236.790102 90.822 -65.4492
238.505980 90.400 -68.8319
240.234293 90.071 -73.7417
241.975130 89.666 -80.9065
243.728581 89.011 -89.4801
245.494739 88.004 -98.6123
247.273695 86.562 -107.7889
249.065542 84.583 -115.6908
250.870374 82.000 -119.2260
252.688284 78.934 -112.5227
254.519367 76.173 -83.1683
256.363720 75.404 -44.8092
258.221437 76.396 -32.0986
260.092616 77.636 -28.9955
261.977354 79.074 -21.2339
263.875750 80.981 -11.0950
265.787903 82.817 -11.8741
267.713911 83.969 -21.2164
269.653877 84.382 -30.4078
271.607900 84.594 -32.3909
273.576083 85.246 -30.1823
275.558528 86.247 -32.7562
277.555338 87.187 -39.4514
279.566619 87.934 -47.5264
281.592474 88.506 -56.5553
283.633009 88.860 -67.4005
285.688331 88.856 -80.3934
287.758546 88.371 -93.9855
289.843763 87.412 -106.1964
291.944090 86.048 -116.9767
294.059638 84.253 -126.2732
296.190515 82.002 -129.7821
298.336833 79.649 -122.6991
300.498705 78.192 -106.8866
302.676243 78.573 -88.4088
304.869559 80.053 -83.9302
307.078770 81.409 -91.3416
309.303989 82.323 -102.2288
311.545334 82.933 -114.1311
313.802919 83.265 -129.1140
316.076865 83.081 -148.5233
318.367288 82.087 -170.2523
320.674309 80.144 170.7747
322.998047 77.567 166.4047
325.338624 75.949 -173.4771
327.696162 76.643 -171.4747
330.070783 78.077 172.7365
332.462612 79.162 151.4331
334.871773 79.731 128.2491
337.298392 79.705 104.5707
339.742595 78.976 82.8097
342.204510 77.723 69.5388
344.684265 77.115 77.8195
347.181989 78.275 88.8566
349.697813 80.050 81.5259
352.231868 81.536 69.5079
354.784285 82.658 57.0452
357.355198 83.369 43.3542
359.944741 83.654 30.1359
362.553049 83.770 20.7227
365.180258 84.058 13.3337
367.826505 84.455 3.3544
370.491927 84.709 -8.7561
373.176665 84.722 -21.8319
375.880856 84.463 -36.0800
378.604644 83.944 -50.8002
381.348169 83.282 -66.3547
384.111575 82.544 -85.8416
386.895006 81.686 -111.7720
389.698607 80.844 -145.8896
392.522524 80.395 170.9709
395.366904 80.409 126.4346
398.231895 80.403 89.8215
401.117648 79.993 63.9092
404.024312 79.552 52.9990
406.952038 80.168 56.8977
409.900981 81.797 55.7834
412.871292 83.406 45.8975
415.863128 84.544 32.5845
418.876643 85.163 18.3081
421.911996 85.213 2.9070
424.969344 84.527 -12.5178
428.048847 83.173 -21.1692
431.150666 81.901 -15.6765
434.274961 81.415 -13.0264
437.421897 80.934 -22.8267
440.591636 79.981 -28.0569
443.784345 80.071 4.4373
447.000189 82.076 29.8621
450.239337 84.116 20.4365
453.501956 85.283 5.0864
456.788219 85.641 -9.0439
460.098294 85.384 -20.9619
463.432356 85.021 -25.2607
466.790578 85.784 -13.0876
470.173135 87.695 -9.1069
473.580203 89.357 -23.2061
477.011961 90.220 -42.4678
480.468586 90.381 -61.6545
483.950259 90.046 -79.8252
487.457163 89.334 -98.3213
490.989478 88.187 -117.9187
494.547390 86.615 -138.4180
498.131084 84.738 -164.9883
501.740748 82.835 150.8049
505.376568 81.977 -8.3252
509.038735 82.328 -54.6626
512.727439 82.814 -82.1509
516.442874 83.602 -97.9392
520.185232 84.894 -114.1484
523.954708 85.948 -138.6003
527.751500 86.221 -167.3630
531.575805 85.544 164.4875
535.427822 84.139 143.6609
539.307753 83.172 136.8420
543.215800 84.271 141.5439
547.152165 86.460 132.5220
551.117055 88.072 109.7703
555.110677 88.791 85.0188
559.133237 88.775 61.5479
563.184947 87.949 38.9250
567.266018 86.220 24.1108
571.376661 84.474 30.8296
575.517092 84.622 46.8069
579.687526 86.251 45.5151
583.888181 87.670 32.3020
588.119275 88.254 14.1956
592.381030 87.852 -4.4304
596.673667 86.525 -18.5359
600.997410 84.627 -24.6274
605.352485 83.025 -14.9644
609.739119 82.909 0.0452
614.157540 83.433 -4.7363
618.607979 83.178 -15.4041
623.090667 82.594 -8.7449
627.605839 83.454 11.3350
632.153730 85.570 16.6089
636.734576 87.570 9.1194
641.348617 89.089 -2.6235
645.996094 90.545 -12.2427
650.677248 92.062 -25.0103
655.392323 93.223 -44.6475
660.141566 93.634 -69.6284
664.925224 93.074 -96.9639
669.743546 91.482 -122.6594
674.596784 89.016 -143.4238
679.485191 86.039 -158.6226
684.409020 83.385 -162.7405
689.368530 82.638 -166.6128
694.363979 83.237 166.5337
699.395626 83.535 130.3965
704.463736 83.151 97.1177
709.568570 82.427 72.8965
714.710396 82.093 62.9236
719.889483 82.988 64.8726
725.106099 84.550 58.0059
730.360516 85.845 45.5000
735.653010 86.744 34.3628
740.983855 87.982 30.9783
746.353329 89.651 23.9619
751.761713 90.940 8.2312
757.209288 91.305 -11.4558
762.696339 90.821 -27.6489
768.223151 89.952 -39.4829
773.790013 88.946 -49.5793
779.397214 88.156 -50.8545
785.045047 88.213 -49.2000
790.733808 88.321 -63.7434
796.463791 87.440 -82.9854
802.235296 85.584 -99.6345
808.048623 83.350 -118.9543
813.904077 82.193 169.8169
819.801961 83.333 27.9209
825.742584 84.959 2.8853
831.726255 86.113 -13.9116
837.753287 87.081 -24.7046
843.823992 88.064 -34.4785
849.938689 88.972 -46.6445
856.097695 89.423 -64.3042
862.301332 89.144 -85.7178
868.549922 88.038 -111.5198
874.843793 86.248 -144.5676
881.183272 85.056 70.1477
887.568689 85.500 4.0547
894.000378 86.459 -20.4287
900.478673 87.682 -32.6426
907.003913 89.202 -42.9443
913.576437 90.219 -61.1377
920.196588 89.982 -82.9307
926.864712 88.638 -96.2998
933.581156 87.019 -103.1729
940.346270 85.437 -111.1021
947.160407 83.749 -115.7764
954.023921 82.245 -110.5225
960.937172 81.344 -109.2041
967.900519 81.168 -93.4795
974.914325 82.382 -68.9883
981.978956 83.555 -84.3330
989.094780 83.194 -108.9673
996.262169 81.437 -124.8223
1003.481495 80.617 -54.6182
1010.753136 81.935 -29.9883
1018.077470 83.287 -45.2578
1025.454879 84.348 -55.6724
1032.885748 85.188 -67.1475
1040.370463 86.357 -70.2002
1047.909417 88.461 -65.8501
1055.503000 90.158 -82.2822
1063.151610 90.223 -112.0068
1070.855645 88.555 -137.3564
1078.615506 85.826 -135.9609
1086.431599 83.406 -114.5781
1094.304330 81.929 -117.4517
1102.234110 81.502 -107.6157
1110.221353 82.393 -100.9346
1118.266475 83.820 -96.3057
1126.369895 85.465 -92.9131
1134.532035 86.204 -112.6782
1142.753322 85.673 -129.9512
1151.034184 85.010 -132.6553
1159.375052 84.731 -143.9780
1167.776361 83.855 -161.2163
1176.238550 82.346 -174.9434
1184.762060 80.642 170.6558
1193.347334 78.584 143.9165
1201.994821 75.869 88.9917
1210.704971 74.127 -36.1001
1219.478238 75.752 -44.7192
1228.315080 78.812 -51.5977
1237.215957 81.257 -66.8193
1246.181334 82.606 -86.6392
1255.211678 83.017 -105.0815
1264.307459 82.888 -119.6807
1273.469152 82.249 -134.6807
1282.697235 80.964 -145.6094
1291.992188 79.591 -143.9351
1301.354495 79.234 -128.8135
1310.784647 79.897 -133.0439
1320.283132 80.309 -149.0449
1329.850448 79.723 -166.4731
1339.487093 78.457 -172.2749
1349.193569 77.237 176.3442
1358.970381 75.908 150.1631
1368.818041 75.356 86.5352
1378.737061 76.618 -62.8496
1388.727958 77.858 -106.0596
1398.791253 77.491 -145.7778
1408.927471 75.633 179.8047
1419.137140 74.384 -38.0137
1429.420793 75.515 -60.7427
1439.778965 76.818 -84.5073
1450.212197 77.034 -102.7139
1460.721033 76.748 -117.9922
1471.306019 76.324 -120.4712
1481.967709 76.418 -99.2876
1492.706658 76.526 -109.7842
1503.523426 76.507 -116.8047
1514.418576 77.339 -117.6216
1525.392678 77.985 -134.7148
1536.446302 77.132 -156.9653
1547.580025 75.287 -161.4009
1558.794428 75.027 -153.3809
1570.090095 77.624 -107.8066
1581.467615 80.436 -96.7720
1592.927581 81.956 -139.0444
1604.470591 82.060 169.7690
1616.097246 81.413 113.3989
1627.808153 81.197 58.1177
1639.603922 82.048 13.8257
1651.485168 82.958 -23.6938
1663.452510 83.107 -55.2075
1675.506573 82.628 -78.5894
1687.647984 82.080 -95.5205
1699.877377 81.803 -106.3472
1712.195390 81.975 -111.7832
1724.602663 81.965 -131.0747
1737.099845 81.044 -155.4541
1749.687587 79.346 178.2480
1762.366544 77.033 144.1431
1775.137379 75.193 84.1152
1788.000756 76.171 11.6084
1800.957346 78.135 -24.2324
1814.007826 78.684 -50.3457
1827.152874 79.124 -47.4102
1840.393177 81.169 -47.3765
1853.729425 83.486 -61.6099
1867.162312 84.789 -84.4487
1880.692540 84.378 -109.2583
1894.320813 82.939 -118.7568
1908.047843 82.223 -117.5249
1921.874344 82.088 -127.8950
1935.801038 81.894 -137.3062
1949.828650 82.222 -139.8901
1963.957912 82.358 -121.3657
1978.189561 81.545 -133.3198
1992.524338 80.073 -152.7705
2006.962991 79.610 -178.2656
2021.506272 81.344 -9.1582
2036.154940 83.963 -47.6826
2050.909758 85.719 -80.7139
2065.771495 86.036 -109.9155
2080.740927 85.259 -124.2300
2095.818833 84.337 -133.6709
2111.006001 83.247 -143.3525
2126.303220 82.975 -135.8262
2141.711290 84.290 -126.3926
2157.231013 85.473 -141.4668
2172.863198 85.596 -166.6772
2188.608660 85.239 163.9565
2204.468221 84.786 117.9160
2220.442706 84.921 -7.2759
2236.532950 85.760 -77.4219
2252.739789 85.793 -112.3677
2269.064070 85.226 -122.7603
2285.506644 85.900 -119.5347
2302.068367 87.556 -127.1626
2318.750104 88.503 -148.9312
2335.552723 88.792 -172.0693
2352.477101 88.099 161.3403
2369.524119 86.277 139.0894
2386.694668 84.224 113.9839
2403.989641 83.106 52.3730
2421.409941 83.073 -101.2705
2438.956476 82.919 -132.2100
2456.630160 83.200 -148.5298
2474.431915 84.348 -137.0332
2492.362668 86.321 -126.5967
2510.423356 88.002 -147.5049
2528.614918 88.185 -177.5508
2546.938304 86.865 155.1475
2565.394469 84.495 144.4600
2583.984375 82.534 -176.6797
2602.708991 82.868 -174.0469
2621.569293 83.323 164.5830
2640.566265 82.562 140.9165
2659.700897 81.452 120.3535
2678.974186 81.549 -119.8818
2698.387137 82.768 -139.4854
2717.940763 83.851 -159.4434
2737.636082 84.598 -177.9438
2757.474121 84.725 168.2856
2777.455915 84.901 175.2432
2797.582506 85.610 166.0508
2817.854942 85.615 143.0713
2838.274281 84.188 120.4180
2858.841586 81.774 103.9668
2879.557931 80.020 153.9521
2900.424394 80.364 -171.6836
2921.442065 81.372 175.8857
2942.612039 82.705 174.9131
2963.935418 84.245 174.1440
2985.413316 85.746 162.2134
3007.046852 86.643 137.1611
3028.837153 86.325 105.2397
3050.785356 84.706 75.2207
3072.892604 82.677 45.3848
3095.160050 81.397 -164.5869
3117.588856 80.699 161.8428
3140.180190 80.139 151.7524
3162.935230 80.564 156.6436
3185.855163 81.350 143.0254
3208.941182 81.467 121.8301
3232.194493 80.845 126.8696
3255.616307 80.926 116.7666
3279.207844 80.962 76.0117
3302.970336 79.878 -48.4668
3326.905021 80.088 -123.7876
3351.013146 82.537 -146.3882
3375.295969 84.192 176.8340
3399.754755 83.865 136.2222
3424.390779 82.149 97.5693
3449.205326 80.262 47.9673
3474.199690 79.603 -65.6748
3499.375173 79.992 -119.4209
3524.733088 80.427 -141.9780
3550.274757 80.709 -162.7754
3576.001511 80.866 175.6655
3601.914692 80.290 155.3223
3628.015651 79.232 144.7886
3654.305748 78.790 154.4404
3680.786354 78.993 177.6030
3707.458849 79.245 -149.0029
3734.324624 79.913 -160.8613
3761.385080 80.687 -174.0166
3788.641627 81.691 -179.3848
3816.095686 82.888 163.7256
3843.748688 83.578 132.6748
3871.602076 83.208 93.9619
3899.657300 82.270 -128.1680
3927.915825 81.849 -158.2344
3956.379122 81.920 -176.5508
3985.048676 82.555 173.5732
4013.925981 83.063 157.5483
4043.012544 82.486 131.8594
4072.309879 80.609 116.7979
4101.819515 79.159 177.2432
4131.542990 79.733 -163.7539
4161.481854 80.823 -176.8560
4191.637667 81.121 162.8521
4222.012001 80.590 145.0659
4252.606441 79.655 131.0010
4283.422580 78.255 125.6523
4314.462026 77.213 177.9810
4345.726396 78.394 -157.0747
4377.217321 80.082 -170.8950
4408.936442 80.601 170.9565
4440.885413 80.396 158.0771
4473.065899 79.341 144.4131
4505.479579 77.424 156.8018
4538.128141 76.612 177.9546
4571.013288 77.164 178.8149
4604.136735 77.913 175.2402
4637.500207 78.457 174.4351
4671.105446 78.765 176.0928
4704.954201 79.026 178.0952
4739.048239 79.735 -178.7515
4773.389336 80.463 175.9785
4807.979283 80.488 163.8550
4842.819883 79.846 160.3115
4877.912952 79.771 171.3047
4913.260320 80.153 168.7080
4948.863830 80.494 166.7178
4984.725337 80.672 164.6172
5020.846712 80.168 159.2793
5057.229836 80.015 168.6006
5093.876609 80.444 166.6792
5130.788938 80.655 167.8906
5167.968750 81.225 178.4248
5205.417982 81.255 168.4194
5243.138586 80.660 168.7329
5281.132530 80.709 175.0859
5319.401793 80.951 169.5547
5357.948371 80.774 169.1582
5396.774274 81.177 175.4507
5435.881525 81.961 172.8584
5475.272163 82.439 173.2280
5514.948243 82.942 174.6240
5554.911831 83.386 168.4360
5595.165012 83.720 161.2646
5635.709884 83.909 156.4824
5676.548561 84.254 161.9370
5717.683172 84.652 156.7153
5759.115861 84.760 151.1802
5800.848789 85.301 150.4326
5842.884130 85.731 140.8604
5885.224077 85.328 134.7627
5927.870837 84.667 129.6353
5970.826633 84.078 123.8608
6014.093704 83.573 114.4458
6057.674306 82.859 112.5078
6101.570711 82.304 120.7612
6145.785208 81.762 125.2334
6190.320101 81.761 139.4131
6235.177712 82.422 135.4683
6280.360380 82.248 129.0938
6325.870460 81.023 126.5752
6371.710325 79.428 126.5410
6417.882365 78.392 133.2295
6464.388986 78.095 145.7300
6511.232613 78.117 147.3896
6558.415689 78.165 148.9229
6605.940673 78.561 153.5352
6653.810042 78.912 149.8574
6702.026292 78.981 148.0825
6750.591937 79.137 150.5391
6799.509509 79.262 148.0645
6848.781558 79.395 149.6582
6898.410653 79.482 153.4141
6948.399380 79.612 156.4810
6998.750346 79.914 159.7412
7049.466176 80.331 165.9209
7100.549514 80.489 162.8472
7152.003023 80.508 159.0635
7203.829385 80.860 162.1792
7256.031302 81.575 164.3721
7308.611496 81.747 157.0879
7361.572708 81.434 155.2871
7414.917698 81.494 157.8633
7468.649249 82.125 159.2163
7522.770160 82.414 150.5625
7577.283253 81.866 144.2837
7632.191371 81.417 154.9561
7687.497376 81.908 159.6860
7743.204151 82.296 148.7085
7799.314600 81.651 138.5171
7855.831649 80.608 145.1646
7912.758244 80.368 151.7686
7970.097352 80.511 150.0635
8027.851962 80.540 151.7471
8086.025087 80.894 158.8789
8144.619758 81.310 153.2012
8203.639030 81.140 145.9751
8263.085980 80.747 149.2026
8322.963708 80.617 151.6787
8383.275334 80.540 147.7271
8444.024002 80.066 146.2441
8505.212881 79.717 152.7930
8566.845160 79.683 152.2749
8628.924051 79.870 153.2192
8691.452792 80.341 163.9131
8754.434642 80.871 163.9971
8817.872884 80.742 155.9282
8881.770826 80.229 159.8735
8946.131799 80.333 164.6523
9010.959157 80.656 161.4307
9076.256282 80.985 162.4492
9142.026576 81.468 161.6562
9208.273470 81.538 155.3159
9275.000415 81.070 149.3501
9342.210891 80.322 148.7603
9409.908403 79.860 153.3140
9478.096478 79.749 154.2212
9546.778672 79.610 154.7124
9615.958566 79.686 157.6543
9685.639765 79.818 155.0728
9755.825904 79.554 153.9883
9826.520640 79.464 164.3398
9897.727659 79.863 165.2993
9969.450674 80.396 166.1650
10041.693423 81.146 169.1230
10114.459673 81.379 162.1533
10187.753217 80.801 163.3286
10261.577877 80.365 163.7378
10335.937500 80.231 159.5776
10410.835964 80.174 162.8599
10486.277173 79.994 165.3247
10562.265060 79.322 165.9873
10638.803587 79.035 175.8916
10715.896743 79.329 176.6802
10793.548548 79.402 175.6577
10871.763050 79.866 -175.5562
10950.544327 80.879 -174.9287
11029.896485 81.893 -177.9780
11109.823662 82.552 174.0156
11190.330024 82.443 162.2471
11271.419768 81.710 157.8169
11353.097122 81.026 155.0923
11435.366344 80.234 150.4673
11518.231722 79.460 153.4492
11601.697577 78.808 153.4355
11685.768261 78.269 172.6299
11770.448155 78.359 -178.8149
11855.741674 78.563 178.4604
11941.653265 78.828 176.5083
12028.187408 78.924 173.1943
12115.348612 79.144 172.7461
12203.141422 79.309 164.7656
12291.570415 78.605 158.5752
12380.640201 77.271 164.4790
12470.355424 76.077 171.3315
12560.720760 75.348 177.5337
12651.740920 75.113 -173.7612
12743.420650 75.716 -153.4253
12835.764729 76.647 -149.8374
12928.777972 77.083 -150.6636
13022.465227 77.318 -145.0396
13116.831378 77.999 -139.8989
13211.881345 79.077 -138.6470
13307.620084 79.879 -142.3853
13404.052584 80.745 -142.0464
13501.183875 81.505 -147.7573
13599.019019 81.814 -153.8711
13697.563116 81.830 -160.7236
13796.821305 81.594 -166.1313
13896.798760 81.345 -170.9448
13997.500692 80.788 -177.1260
14098.932352 79.998 -179.3218
14201.099028 79.198 -179.3472
14304.006046 78.595 -177.4888
14407.658770 78.072 -178.9727
14512.062604 77.488 -179.9849
14617.222992 76.917 -178.2305
14723.145416 76.450 -178.0913
14829.835397 75.793 -177.3472
14937.298497 75.028 -174.3091
15045.540320 74.255 -168.0693
15154.566507 73.683 -162.7637
15264.382743 73.486 -151.3628
15374.994752 74.063 -141.4917
15486.408302 75.140 -137.7378
15598.629201 76.390 -136.3140
15711.663298 77.504 -139.5674
15825.516487 77.994 -148.0059
15940.194703 77.900 -156.3472
16055.703925 77.305 -162.7349
16172.050174 76.486 -165.7876
16289.239516 75.766 -165.0654
16407.278061 75.362 -163.9448
16526.171961 75.098 -164.6719
16645.927415 74.735 -166.7529
16766.550667 74.141 -168.8027
16888.048005 73.337 -168.9146
17010.425762 72.543 -166.0244
17133.690320 71.988 -161.4019
17257.848103 71.813 -155.7236
17382.905584 71.913 -152.4058
17508.869284 72.100 -149.4116
17635.745768 72.291 -146.2124
17763.541652 72.546 -143.9346
17892.263597 72.775 -142.8301
18021.918315 73.149 -142.5117
18152.512564 73.613 -145.1660
18284.053153 73.821 -152.3608
18416.546939 73.487 -161.3687
18550.000830 72.546 -169.7134
18684.421783 71.125 -175.1426
18819.816805 69.553 -176.1826
18956.192956 68.136 -176.3433
19093.557344 66.777 -174.9341
19231.917131 65.504 -172.8359
19371.279531 64.086 -174.1265
19511.651807 62.453 -173.2993
19653.041280 60.747 -173.3936
19795.455318 58.786 -171.8940
19938.901348 57.148 -166.6650
