* Measurement data measured by REW V5.31.1
* Source: Scarlett 2i4 USB, MICROPHONE, R, volume: no control
* Format: 512k Log Swept Sine, 1 sweep at -18.0 dBFS with no timing reference
* Dated: May 16, 2024 7:39:18 AM
* REW Settings:
*  C-weighting compensation: Off
*  Target level: 75.0 dB
* Note: ; 
* Measurement: bns-back12-side2-p1-r
* Smoothing: 1/48 octave
* Frequency Step: 96 ppo
* Start Frequency: 10.093689 Hz
*
* Freq(Hz) SPL(dB) Phase(degrees)
10.093689 47.687 24.7191
10.166832 47.587 22.7047
10.240505 47.466 20.7182
10.314712 47.339 18.8510
10.389457 47.203 17.2230
10.464743 47.029 15.9571
10.540575 46.791 14.9744
10.616956 46.516 14.2748
10.693891 46.233 13.9115
10.771383 45.958 13.9552
10.849437 45.682 14.5468
10.928057 45.406 15.6977
11.007246 45.167 17.2918
11.087009 45.006 19.1577
11.167350 44.947 21.2745
11.248273 44.976 23.7808
11.329783 45.083 26.3307
11.411883 45.262 28.5585
11.494578 45.519 30.2770
11.577873 45.863 31.7080
11.661771 46.258 32.7142
11.746277 46.658 33.1736
11.831395 47.041 33.0311
11.917130 47.424 32.4163
12.003487 47.792 31.4301
12.090469 48.127 30.1411
12.178081 48.415 28.5212
12.266329 48.664 26.5244
12.355216 48.872 24.3247
12.444747 49.034 22.0702
12.534926 49.147 19.6664
12.625760 49.213 17.0246
12.717251 49.231 14.3409
12.809406 49.203 11.7932
12.902228 49.125 9.1847
12.995723 48.999 6.5255
13.089895 48.830 4.0065
13.184750 48.618 1.7606
13.280292 48.360 -0.3761
13.376526 48.069 -2.3262
13.473458 47.758 -3.9316
13.571093 47.419 -5.1003
13.669434 47.068 -5.8771
13.768489 46.740 -6.2943
13.868261 46.458 -6.2729
13.968756 46.214 -5.6780
14.069979 46.040 -4.8052
14.171936 45.971 -3.9669
14.274632 46.012 -2.9436
14.378072 46.142 -2.0212
14.482261 46.342 -1.6243
14.587206 46.617 -1.7050
14.692910 46.946 -2.1946
14.799381 47.283 -3.2138
14.906624 47.611 -4.8341
15.014643 47.932 -6.8986
15.123446 48.221 -9.2353
15.233036 48.465 -11.8899
15.343421 48.667 -14.8896
15.454606 48.820 -17.9151
15.566596 48.918 -20.9190
15.679398 48.963 -24.0730
15.793018 48.959 -27.0386
15.907460 48.904 -29.6815
16.022732 48.803 -32.1794
16.138840 48.674 -34.2761
16.255788 48.524 -35.7950
16.373585 48.364 -36.8308
16.492234 48.238 -37.3627
16.611744 48.161 -37.2345
16.732119 48.147 -36.5775
16.853367 48.234 -35.7507
16.975494 48.434 -34.6562
17.098505 48.727 -33.5748
17.222408 49.096 -32.8958
17.347209 49.541 -32.4849
17.472914 50.019 -32.4517
17.599530 50.500 -32.8770
17.727063 50.984 -33.6295
17.855521 51.449 -34.5941
17.984909 51.889 -35.7785
18.115235 52.308 -37.0792
18.246506 52.708 -38.3760
18.378727 53.090 -39.7026
18.511907 53.464 -41.0268
18.646052 53.837 -42.3095
18.781169 54.207 -43.6026
18.917265 54.580 -44.9638
19.054347 54.952 -46.3645
19.192423 55.314 -47.8542
19.331499 55.662 -49.4796
19.471583 55.985 -51.1522
19.612682 56.270 -52.8453
19.754804 56.517 -54.5721
19.897956 56.719 -56.0667
20.042144 56.876 -57.4123
20.187378 57.005 -58.3848
20.333664 57.115 -58.8472
20.481010 57.236 -58.8619
20.629424 57.410 -58.3237
20.778913 57.652 -57.3348
20.929486 57.999 -56.2987
21.081150 58.455 -55.1823
21.233912 58.992 -54.5921
21.387782 59.597 -54.5088
21.542767 60.216 -55.0700
21.698874 60.814 -56.3578
21.856113 61.364 -58.0931
22.014492 61.834 -60.2662
22.174018 62.221 -62.6460
22.334700 62.514 -64.9585
22.496546 62.723 -67.1963
22.659566 62.864 -68.9224
22.823766 62.959 -70.2373
22.989157 63.056 -70.8656
23.155745 63.181 -70.9055
23.323542 63.390 -70.5709
23.492554 63.690 -69.9548
23.662790 64.083 -69.6313
23.834261 64.548 -69.5822
24.006973 65.029 -70.1559
24.180938 65.501 -71.1805
24.356163 65.920 -72.5467
24.532658 66.280 -74.0781
24.710431 66.579 -75.3980
24.889493 66.847 -76.4412
25.069853 67.128 -76.8630
25.251519 67.477 -76.9234
25.434502 67.950 -76.5772
25.618811 68.561 -76.6067
25.804456 69.309 -77.1022
25.991445 70.123 -78.8090
26.179790 70.958 -81.5309
26.369500 71.733 -85.4788
26.560584 72.416 -90.2933
26.753053 72.964 -95.9029
26.946917 73.360 -101.8579
27.142185 73.589 -108.1938
27.338869 73.644 -114.2251
27.536977 73.526 -120.0805
27.736522 73.251 -124.9378
27.937512 72.860 -128.7786
28.139959 72.414 -130.8774
28.343872 72.059 -131.3682
28.549264 71.907 -130.1495
28.756143 72.087 -128.6102
28.964522 72.554 -127.6778
29.174411 73.212 -128.3139
29.385821 73.886 -130.7451
29.598763 74.482 -134.6121
29.813248 74.916 -139.5858
30.029287 75.164 -144.9424
30.246891 75.213 -150.5548
30.466073 75.074 -155.6217
30.686842 74.781 -159.9048
30.909212 74.382 -162.9800
31.133193 73.981 -164.5078
31.358797 73.684 -164.7452
31.586035 73.578 -163.9717
31.814921 73.694 -163.3798
32.045465 73.957 -163.5271
32.277680 74.275 -164.7476
32.511577 74.536 -166.9517
32.747169 74.689 -169.5800
32.984469 74.718 -172.2840
33.223488 74.641 -174.4687
33.464239 74.529 -175.7474
33.706735 74.462 -176.0949
33.950987 74.526 -175.6205
34.197010 74.774 -175.0575
34.444816 75.181 -175.0819
34.694417 75.683 -176.0582
34.945827 76.201 -178.1650
35.199059 76.665 178.7780
35.454126 77.045 175.0849
35.711041 77.327 170.9954
35.969818 77.511 166.7444
36.230470 77.612 162.5716
36.493011 77.644 158.5909
36.757455 77.624 154.8782
37.023814 77.573 151.4918
37.292104 77.508 148.4623
37.562338 77.451 145.7650
37.834530 77.420 143.3315
38.108695 77.430 141.0598
38.384846 77.487 138.8188
38.662999 77.591 136.4633
38.943167 77.729 133.8785
39.225365 77.891 131.0255
39.509608 78.069 127.9011
39.795911 78.263 124.5032
40.084289 78.477 120.8012
40.374756 78.718 116.7063
40.667328 78.985 112.0550
40.962020 79.264 106.6626
41.258848 79.529 100.4005
41.557827 79.749 93.2198
41.858972 79.892 85.1478
42.162299 79.933 76.2700
42.467824 79.857 66.7095
42.775564 79.657 56.6074
43.085533 79.339 46.1021
43.397749 78.921 35.3087
43.712227 78.427 24.2983
44.028983 77.891 13.0791
44.348036 77.349 1.6115
44.669400 76.832 -10.1533
44.993093 76.365 -22.2179
45.319131 75.959 -34.4838
45.647532 75.619 -46.7201
45.978313 75.349 -58.5827
46.311491 75.160 -69.6876
46.647083 75.075 -79.7203
46.985107 75.118 -88.5422
47.325581 75.305 -96.2361
47.668521 75.624 -103.0354
48.013947 76.040 -109.1622
48.361876 76.515 -114.6925
48.712326 77.032 -119.5533
49.065315 77.608 -123.6536
49.420863 78.281 -127.0549
49.778987 79.082 -130.0497
50.139706 80.012 -133.0596
50.503039 81.046 -136.4395
50.869005 82.157 -140.3973
51.237623 83.321 -145.0714
51.608912 84.520 -150.6469
51.982891 85.720 -157.3690
52.359580 86.866 -165.4376
52.739000 87.893 -174.8903
53.121168 88.740 174.4319
53.506106 89.356 162.8464
53.893833 89.709 150.7325
54.284370 89.785 138.5303
54.677737 89.586 126.7367
55.073955 89.137 115.8588
55.473043 88.491 106.3444
55.875024 87.725 98.4545
56.279917 86.930 92.1533
56.687745 86.176 87.0669
57.098527 85.484 82.6860
57.512287 84.829 78.7305
57.929045 84.185 75.2756
58.348822 83.558 72.5427
58.771642 82.990 70.5823
59.197525 82.522 69.1080
59.626495 82.161 67.6827
60.058573 81.879 66.0211
60.493782 81.638 64.0781
60.932145 81.417 61.9363
61.373685 81.208 59.6445
61.818424 81.008 57.1990
62.266386 80.808 54.5975
62.717593 80.605 51.8607
63.172071 80.397 49.0024
63.629842 80.180 46.0205
64.090930 79.950 42.9413
64.555359 79.707 39.8611
65.023154 79.468 36.8650
65.494339 79.259 33.8753
65.968938 79.093 30.5750
66.446976 78.948 26.6083
66.928478 78.770 21.8215
67.413469 78.507 16.3495
67.901975 78.132 10.4527
68.394021 77.644 4.3384
68.889632 77.049 -2.0192
69.388835 76.334 -8.7864
69.891655 75.450 -16.1165
70.398118 74.304 -23.7964
70.908252 72.789 -30.9161
71.422083 70.870 -34.5208
71.939636 68.996 -27.6547
72.460941 68.660 -8.0507
72.986023 70.240 0.9501
73.514909 72.149 -5.8011
74.047629 73.590 -19.4736
74.584208 74.530 -35.2194
75.124676 75.199 -50.2928
75.669061 75.908 -63.6061
76.217390 76.900 -75.5133
76.769692 78.179 -87.3895
77.325997 79.581 -100.1581
77.886333 80.944 -113.9044
78.450730 82.173 -128.3052
79.019216 83.212 -143.1420
79.591822 84.012 -158.1981
80.168577 84.532 -173.1768
80.749512 84.753 172.3257
81.334656 84.685 158.8281
81.924040 84.368 146.6826
82.517696 83.837 135.9617
83.115653 83.091 126.6893
83.717943 82.101 119.3931
84.324598 80.903 115.8002
84.935649 79.814 118.6033
85.551128 79.490 127.6833
86.171066 80.223 135.7786
86.795497 81.480 137.7704
87.424453 82.721 135.2432
88.057967 83.789 130.6746
88.696071 84.708 125.2427
89.338800 85.520 119.0706
89.986185 86.219 111.8586
90.638262 86.749 103.4226
91.295065 87.043 93.8910
91.956626 87.032 83.6719
92.622982 86.665 73.4373
93.294166 85.915 64.1943
93.970214 84.811 57.3311
94.651161 83.492 54.4392
95.337042 82.260 56.6536
96.027894 81.568 63.2830
96.723752 81.738 70.7191
97.424652 82.601 74.6589
98.130631 83.696 73.6328
98.841726 84.671 68.5131
99.557974 85.345 60.6750
100.279412 85.643 51.4541
101.006078 85.564 42.1742
101.738010 85.184 33.9862
102.475245 84.635 27.3898
103.217823 84.040 21.9980
103.965782 83.446 17.1519
104.719161 82.853 12.7164
105.477999 82.285 8.9541
106.242336 81.814 5.7043
107.012212 81.480 2.0200
107.787666 81.230 -3.0795
108.568740 80.948 -9.8789
109.355474 80.537 -18.0978
110.147909 79.952 -27.3451
110.946086 79.197 -37.4238
111.750047 78.315 -48.5664
112.559834 77.361 -61.4785
113.375489 76.397 -77.1405
114.197055 75.501 -96.4779
115.024574 74.767 -119.5193
115.858089 74.282 -144.2131
116.697645 74.113 -167.0295
117.543284 74.253 174.4332
118.395051 74.593 160.2726
119.252990 75.005 149.8007
120.117147 75.453 142.5771
120.987565 75.990 138.1237
121.864291 76.690 135.5863
122.747370 77.575 133.7511
123.636848 78.582 131.4294
124.532771 79.618 128.1624
125.435187 80.609 123.9484
126.344142 81.505 118.9222
127.259684 82.289 113.4753
128.181860 82.973 107.8148
129.110718 83.558 101.8115
130.046308 84.031 95.5386
130.988677 84.391 89.1161
131.937875 84.628 82.4686
132.893951 84.716 75.6970
133.856956 84.636 69.0371
134.826938 84.367 62.7656
135.803950 83.916 57.6659
136.788041 83.375 54.6454
137.779264 82.887 53.5736
138.777669 82.550 53.4244
139.783309 82.354 53.2090
140.796237 82.223 52.5292
141.816504 82.099 51.8955
142.844165 81.993 51.8099
143.879273 81.936 52.0925
144.921881 81.952 52.7148
145.972045 82.108 54.2855
147.029819 82.505 56.4402
148.095257 83.110 57.0859
149.168417 83.773 55.7349
150.249353 84.449 53.7478
151.338121 85.184 51.1909
152.434780 85.943 46.9202
153.539385 86.603 40.3331
154.651995 87.033 31.7811
155.772667 87.150 22.0791
156.901460 86.925 12.1224
158.038432 86.368 2.6699
159.183644 85.497 -6.0660
160.337154 84.283 -13.9377
161.499023 82.674 -19.6781
162.669312 80.715 -20.3788
163.848081 78.799 -11.3823
165.035392 77.850 7.2620
166.231306 78.279 20.3303
167.435887 79.239 23.3444
168.649196 80.084 22.0957
169.871298 80.739 20.0007
171.102255 81.284 17.2288
172.342133 81.686 12.4084
173.590995 81.838 6.0662
174.848907 81.757 -0.0524
176.115934 81.477 -6.9946
177.392143 80.827 -15.9341
178.677599 79.589 -24.7808
179.972371 77.683 -30.6047
181.276525 75.258 -28.8682
182.590129 73.392 -2.7585
183.913252 74.249 47.0043
185.245964 76.852 59.5300
186.588332 79.266 55.8203
187.940428 81.061 47.2734
189.302322 82.241 36.7029
190.674085 82.873 25.6333
192.055788 83.068 15.4061
193.447503 82.958 6.3939
194.849303 82.602 -2.2482
196.261262 81.965 -10.5548
197.683452 81.058 -17.1276
199.115948 80.018 -21.6466
200.558824 78.918 -27.0599
202.012156 77.538 -36.1923
203.476019 75.610 -46.9357
204.950490 73.765 -33.8121
206.435646 73.954 64.8201
207.931564 75.574 59.0084
209.438322 76.945 50.0586
210.955998 77.952 45.6188
212.484672 78.857 43.6919
214.024424 79.652 40.5636
215.575333 80.229 36.5588
217.137481 80.653 33.8750
218.710948 81.155 33.4661
220.295818 81.909 33.6360
221.892172 82.830 31.4478
223.500094 83.691 26.1765
225.119668 84.316 18.6361
226.750978 84.595 9.5514
228.394109 84.437 -0.3917
230.049147 83.774 -9.7106
231.716178 82.622 -16.1370
233.395289 81.152 -17.0410
235.086567 79.822 -10.1316
236.790102 79.415 3.6995
238.505980 80.368 17.5455
240.234293 82.105 23.8651
241.975130 83.806 21.3505
243.728581 85.021 12.8878
245.494739 85.621 2.4021
247.273695 85.733 -6.4590
249.065542 85.653 -12.0613
250.870374 85.673 -15.5295
252.688284 85.881 -19.3623
254.519367 86.147 -25.2074
256.363720 86.277 -33.0726
258.221437 86.130 -42.2246
260.092616 85.622 -51.6309
261.977354 84.736 -59.7537
263.875750 83.546 -65.2551
265.787903 82.195 -67.4902
267.713911 80.880 -66.0752
269.653877 79.809 -62.4309
271.607900 79.141 -57.3483
273.576083 79.130 -48.9945
275.558528 79.925 -41.6024
277.555338 81.115 -41.2106
279.566619 82.173 -47.1951
281.592474 82.806 -57.3328
283.633009 82.865 -69.9277
285.688331 82.260 -83.0417
287.758546 80.965 -93.9637
289.843763 79.074 -99.5387
291.944090 76.894 -96.4751
294.059638 75.196 -81.9430
296.190515 75.041 -62.2999
298.336833 76.250 -52.3602
300.498705 77.764 -52.0856
302.676243 79.078 -56.4432
304.869559 80.092 -63.2776
307.078770 80.783 -71.9694
309.303989 81.214 -80.5864
311.545334 81.578 -87.8944
313.802919 82.011 -95.4360
316.076865 82.463 -104.8666
318.367288 82.842 -115.8468
320.674309 83.112 -128.0625
322.998047 83.204 -142.0404
325.338624 82.972 -157.8439
327.696162 82.285 -173.6852
330.070783 81.188 173.4777
332.462612 79.990 165.6843
334.871773 79.124 161.0842
337.298392 78.661 154.7457
339.742595 78.252 146.2898
342.204510 77.836 141.3904
344.684265 78.006 143.6558
347.181989 79.092 144.7695
349.697813 80.560 139.0187
352.231868 81.950 129.3754
354.784285 83.119 117.6372
357.355198 83.976 103.9106
359.944741 84.438 89.1271
362.553049 84.508 74.9153
365.180258 84.289 62.6013
367.826505 83.980 52.9019
370.491927 83.835 45.5845
373.176665 83.970 37.8365
375.880856 84.144 26.3096
378.604644 83.944 11.0594
381.348169 83.076 -5.3875
384.111575 81.415 -19.6832
386.895006 79.033 -25.6169
389.698607 76.619 -10.8809
392.522524 75.661 10.0411
395.366904 76.217 14.0037
398.231895 77.156 12.0204
401.117648 78.093 8.3922
404.024312 78.812 0.0757
406.952038 78.988 -12.5707
409.900981 78.577 -24.4479
412.871292 77.841 -34.3925
415.863128 76.844 -47.1692
418.876643 75.222 -62.7715
421.911996 72.774 -68.4539
424.969344 70.479 -30.5190
428.048847 70.071 -17.2208
431.150666 70.762 -29.8116
434.274961 71.107 -55.4283
437.421897 70.755 -99.0723
440.591636 70.365 177.0698
443.784345 70.571 109.9082
447.000189 70.908 77.2397
450.239337 71.106 61.1597
453.501956 71.519 55.4116
456.788219 72.114 49.2302
460.098294 72.491 40.8323
463.432356 72.542 32.9419
466.790578 72.172 22.5671
470.173135 71.022 8.9751
473.580203 69.128 1.3567
477.011961 68.598 56.7612
480.468586 71.316 117.5188
483.950259 74.510 111.9141
487.457163 76.804 96.7595
490.989478 78.210 81.2051
494.547390 78.933 66.9304
498.131084 79.045 53.4976
501.740748 78.518 41.3655
505.376568 77.409 33.6365
509.038735 76.403 40.4541
512.727439 76.935 62.0605
516.442874 78.666 66.7815
520.185232 80.174 58.2373
523.954708 80.901 44.8914
527.751500 80.691 30.3411
531.575805 79.634 20.5417
535.427822 78.683 31.3098
539.307753 79.326 54.5554
543.215800 80.676 51.8281
547.152165 81.396 40.5461
551.117055 81.574 34.2957
555.110677 82.053 36.5212
559.133237 83.152 36.1892
563.184947 84.366 29.2791
567.266018 85.235 17.3816
571.376661 85.351 0.7327
575.517092 84.438 -15.1123
579.687526 82.734 -20.6211
583.888181 81.164 -14.7241
588.119275 80.565 -9.5193
592.381030 80.662 -10.1008
596.673667 80.796 -14.7671
600.997410 80.598 -21.6755
605.352485 80.107 -25.5059
609.739119 79.804 -24.7961
614.157540 79.740 -29.5537
618.607979 79.456 -37.9934
623.090667 78.828 -47.4529
627.605839 77.703 -59.7820
632.153730 76.201 -62.8564
636.734576 75.511 -51.4937
641.348617 75.530 -68.9558
645.996094 74.670 -108.4678
650.677248 72.964 -167.3691
655.392323 72.721 145.4746
660.141566 75.128 132.9849
664.925224 77.680 110.7649
669.743546 79.326 88.4976
674.596784 80.116 70.2349
679.485191 80.243 57.0469
684.409020 80.129 51.1289
689.368530 80.369 51.0974
694.363979 81.323 53.4927
699.395626 82.777 53.0098
704.463736 84.080 45.1021
709.568570 84.723 32.3391
714.710396 84.582 19.8291
719.889483 83.878 12.7000
725.106099 83.128 11.7437
730.360516 82.654 12.0273
735.653010 82.438 12.7390
740.983855 82.626 17.4395
746.353329 83.468 22.6064
751.761713 84.726 22.9326
757.209288 86.066 19.8665
762.696339 87.102 11.0686
768.223151 87.502 -1.0540
773.790013 87.275 -11.8052
779.397214 86.635 -19.6917
785.045047 86.048 -20.0266
790.733808 86.311 -13.4141
796.463791 87.028 -18.6057
802.235296 87.102 -31.6726
808.048623 86.338 -41.8767
813.904077 85.442 -40.6553
819.801961 85.737 -29.1348
825.742584 86.981 -30.9429
831.726255 87.781 -45.3284
837.753287 87.684 -61.6687
843.823992 86.882 -76.9807
849.938689 85.316 -92.3342
856.097695 82.842 -95.9141
862.301332 80.094 -89.3171
868.549922 77.821 -85.6003
874.843793 77.112 -43.0117
881.183272 78.653 -18.8425
887.568689 80.463 -24.8647
894.000378 81.623 -34.4973
900.478673 81.992 -46.2776
907.003913 81.649 -54.4260
913.576437 81.351 -54.7542
920.196588 81.687 -53.9778
926.864712 81.908 -65.9087
933.581156 80.903 -82.2258
940.346270 79.094 -75.1216
947.160407 78.897 -36.2366
954.023921 80.088 -38.9832
960.937172 80.270 -57.6309
967.900519 79.172 -64.2805
974.914325 78.814 -27.5305
981.978956 80.353 -14.5757
989.094780 81.785 -24.4185
996.262169 82.595 -32.6160
1003.481495 83.482 -36.1045
1010.753136 84.917 -36.6133
1018.077470 86.671 -42.0947
1025.454879 87.874 -58.6602
1032.885748 88.100 -79.3171
1040.370463 87.241 -99.9246
1047.909417 85.293 -113.3782
1055.503000 82.877 -110.1477
1063.151610 81.275 -101.8779
1070.855645 80.665 -103.9287
1078.615506 80.367 -106.9084
1086.431599 81.237 -90.0796
1094.304330 83.235 -84.1824
1102.234110 84.335 -105.1260
1110.221353 83.710 -130.5046
1118.266475 81.586 -148.6721
1126.369895 78.661 -147.0591
1134.532035 76.848 -112.4580
1142.753322 77.935 -100.8062
1151.034184 80.003 -108.0720
1159.375052 81.243 -128.7527
1167.776361 81.364 -153.0569
1176.238550 80.902 178.9912
1184.762060 79.779 139.8752
1193.347334 78.122 82.7141
1201.994821 76.253 -9.0271
1210.704971 74.108 -78.0132
1219.478238 73.185 -139.5000
1228.315080 74.740 62.2463
1237.215957 77.052 14.3948
1246.181334 79.000 -18.6040
1255.211678 80.136 -49.3069
1264.307459 80.131 -79.8276
1273.469152 78.868 -105.7388
1282.697235 77.119 -108.8872
1291.992188 76.918 -109.6780
1301.354495 77.887 -148.2944
1310.784647 78.743 31.4402
1320.283132 79.165 -21.1704
1329.850448 79.206 -51.6309
1339.487093 79.121 -71.8435
1349.193569 79.010 -86.0466
1358.970381 79.380 -87.4504
1368.818041 80.742 -93.9170
1378.737061 81.924 -116.9456
1388.727958 82.006 -149.2017
1398.791253 81.019 172.3206
1408.927471 79.349 118.7981
1419.137140 77.956 20.4368
1429.420793 77.323 -49.5632
1439.778965 76.958 -81.5630
1450.212197 76.560 -105.7971
1460.721033 75.630 -123.9402
1471.306019 74.724 -132.0244
1481.967709 74.106 -147.3718
1492.706658 73.233 -168.4688
1503.523426 71.960 157.0876
1514.418576 71.420 99.0552
1525.392678 72.620 59.1174
1536.446302 75.200 47.9688
1547.580025 77.702 19.7383
1558.794428 79.924 -5.4111
1570.090095 81.912 -27.1914
1581.467615 83.615 -48.6650
1592.927581 84.936 -71.7393
1604.470591 85.435 -99.2451
1616.097246 84.645 -127.5439
1627.808153 82.551 -148.1450
1639.603922 79.846 -152.3354
1651.485168 78.139 -149.7432
1663.452510 78.234 -149.7412
1675.506573 79.173 -155.3970
1687.647984 79.282 179.5283
1699.877377 78.050 155.8027
1712.195390 77.123 136.6406
1724.602663 77.659 25.2163
1737.099845 77.938 -71.1138
1749.687587 77.481 -106.2114
1762.366544 78.190 -120.5723
1775.137379 79.625 -152.8330
1788.000756 79.897 157.5190
1800.957346 78.827 -48.9512
1814.007826 77.582 -82.4829
1827.152874 77.383 -105.7856
1840.393177 76.952 -130.4521
1853.729425 75.647 -146.8770
1867.162312 74.605 -151.9351
1880.692540 75.943 -104.5034
1894.320813 78.669 -90.3955
1908.047843 80.740 -111.6089
1921.874344 81.905 -134.7471
1935.801038 82.147 -158.3564
1949.828650 81.209 179.3101
1963.957912 79.228 169.1138
1978.189561 77.612 175.3462
1992.524338 77.807 -178.5283
2006.962991 78.858 173.2041
2021.506272 80.096 175.9282
2036.154940 80.937 161.2959
2050.909758 80.384 144.7036
2065.771495 79.070 149.2524
2080.740927 77.824 134.4502
2095.818833 77.110 101.2573
2111.006001 77.792 -85.1367
2126.303220 79.582 -110.7148
2141.711290 81.744 -118.4478
2157.231013 83.361 -134.9492
2172.863198 84.379 -152.4902
2188.608660 85.268 -170.4194
2204.468221 85.439 167.1040
2220.442706 84.626 149.5869
2236.532950 83.868 156.9741
2252.739789 84.238 158.4712
2269.064070 84.646 142.6655
2285.506644 84.073 132.5962
2302.068367 83.093 131.1396
2318.750104 82.178 121.2544
2335.552723 80.818 108.0757
2352.477101 78.815 103.4854
2369.524119 77.864 126.5654
2386.694668 79.534 162.0303
2403.989641 81.681 155.2861
2421.409941 82.844 137.5854
2438.956476 82.666 120.2607
2456.630160 81.673 110.1812
2474.431915 81.158 117.0098
2492.362668 82.364 147.2563
2510.423356 84.034 138.4629
2528.614918 85.017 121.7354
2546.938304 85.364 106.4785
2565.394469 85.137 89.8560
2583.984375 84.234 74.7505
2602.708991 82.786 63.4526
2621.569293 80.872 65.8809
2640.566265 79.270 87.6631
2659.700897 78.593 91.2725
2678.974186 78.238 84.7554
2698.387137 78.509 92.2217
2717.940763 80.181 131.4087
2737.636082 81.999 122.9849
2757.474121 82.812 104.4873
2777.455915 82.568 86.1411
2797.582506 81.543 77.1133
2817.854942 81.526 96.3286
2838.274281 82.903 100.7964
2858.841586 83.522 81.6152
2879.557931 82.743 62.7305
2900.424394 81.119 53.2368
2921.442065 79.866 73.1914
2942.612039 79.963 94.9019
2963.935418 80.184 88.3330
2985.413316 79.856 77.2236
3007.046852 78.976 76.4404
3028.837153 79.307 99.7827
3050.785356 81.273 108.3965
3072.892604 82.761 98.7573
3095.160050 83.165 88.0493
3117.588856 83.103 78.0889
3140.180190 82.868 69.9424
3162.935230 82.656 65.0044
3185.855163 82.084 56.4097
3208.941182 81.011 53.4399
3232.194493 80.033 54.4678
3255.616307 79.262 51.6216
3279.207844 78.798 57.0908
3302.970336 79.463 75.5874
3326.905021 80.554 73.5479
3351.013146 80.842 62.4946
3375.295969 80.559 57.8359
3399.754755 80.394 55.2095
3424.390779 80.411 50.9458
3449.205326 80.187 42.9067
3474.199690 79.453 34.6987
3499.375173 78.160 32.2012
3524.733088 76.711 35.0527
3550.274757 75.549 38.5371
3576.001511 75.197 51.0859
3601.914692 75.889 71.2729
3628.015651 77.148 82.2485
3654.305748 78.880 85.3779
3680.786354 80.051 72.3198
3707.458849 79.749 54.3457
3734.324624 78.405 47.7656
3761.385080 77.654 59.7256
3788.641627 77.952 68.1514
3816.095686 78.311 66.9849
3843.748688 78.524 64.1602
3871.602076 79.129 77.0884
3899.657300 80.081 81.1445
3927.915825 80.661 73.2227
3956.379122 81.035 66.6143
3985.048676 81.314 62.5117
4013.925981 81.028 55.9849
4043.012544 80.204 50.4731
4072.309879 79.369 49.5371
4101.819515 79.110 51.9941
4131.542990 79.361 49.7275
4161.481854 79.647 44.6772
4191.637667 80.430 57.9395
4222.012001 81.778 63.0273
4252.606441 82.289 46.0479
4283.422580 81.394 29.0239
4314.462026 79.730 30.4644
4345.726396 78.502 35.9478
4377.217321 77.680 32.6489
4408.936442 76.908 30.6416
4440.885413 76.098 32.3433
4473.065899 75.759 40.2188
4505.479579 76.002 39.9990
4538.128141 76.060 35.7109
4571.013288 76.297 47.5366
4604.136735 77.032 50.4336
4637.500207 76.903 37.7534
4671.105446 75.923 32.2515
4704.954201 75.079 31.7759
4739.048239 74.975 38.5669
4773.389336 75.971 73.4160
4807.979283 76.904 66.7397
4842.819883 76.867 54.2773
4877.912952 76.708 54.7251
4913.260320 76.787 49.8452
4948.863830 76.397 46.9604
4984.725337 75.905 51.6035
5020.846712 76.224 73.4614
5057.229836 77.627 78.1328
5093.876609 78.377 60.7310
5130.788938 77.937 49.3174
5167.968750 77.545 57.8179
5205.417982 77.579 50.7739
5243.138586 76.960 36.7251
5281.132530 76.001 45.6963
5319.401793 75.738 67.0405
5357.948371 75.679 71.5571
5396.774274 75.999 79.0776
5435.881525 76.438 73.0981
5475.272163 76.529 68.3916
5514.948243 76.563 66.0679
5554.911831 77.446 77.4839
5595.165012 79.363 101.9204
5635.709884 80.549 88.6416
5676.548561 80.444 75.3091
5717.683172 80.222 71.8188
5759.115861 80.158 65.0405
5800.848789 79.772 60.2314
5842.884130 79.554 63.4463
5885.224077 80.102 68.3999
5927.870837 80.954 64.0161
5970.826633 81.354 55.3257
6014.093704 81.226 48.5205
6057.674306 80.889 44.1519
6101.570711 80.386 39.2373
6145.785208 79.915 42.6104
6190.320101 80.127 48.4746
6235.177712 80.410 44.9277
6280.360380 80.496 43.1396
6325.870460 80.459 38.5747
6371.710325 80.096 34.1289
6417.882365 79.869 40.1069
6464.388986 80.187 43.8643
6511.232613 80.442 38.5737
6558.415689 80.647 35.4668
6605.940673 80.834 30.4990
6653.810042 80.624 23.2695
6702.026292 80.142 19.9160
6750.591937 79.903 20.7700
6799.509509 79.763 18.0522
6848.781558 79.921 19.4019
6898.410653 80.352 14.2793
6948.399380 79.893 1.1938
6998.750346 78.877 16.1704
7049.466176 78.424 26.2227
7100.549514 78.104 23.8457
7152.003023 77.860 20.1382
7203.829385 77.448 15.4019
7256.031302 77.167 19.7285
7308.611496 77.569 44.0967
7361.572708 78.796 51.1187
7414.917698 80.292 48.7344
7468.649249 81.357 35.7100
7522.770160 81.310 25.7407
7577.283253 81.054 41.2451
7632.191371 81.294 42.6138
7687.497376 81.828 39.4927
7743.204151 81.781 23.1768
7799.314600 80.582 11.9951
7855.831649 79.488 20.3286
7912.758244 79.851 37.3555
7970.097352 80.977 33.9277
8027.851962 81.488 17.8911
8086.025087 80.926 9.8042
8144.619758 80.280 30.0239
8203.639030 80.578 33.9258
8263.085980 81.512 32.9976
8322.963708 81.869 18.9966
8383.275334 81.308 12.4780
8444.024002 81.070 17.7085
8505.212881 81.507 23.3042
8566.845160 81.794 15.7158
8628.924051 81.539 4.7544
8691.452792 80.788 -3.7495
8754.434642 80.324 -2.2314
8817.872884 80.729 11.6777
8881.770826 81.198 9.2490
8946.131799 80.939 0.9805
9010.959157 80.417 -1.4746
9076.256282 80.081 2.2764
9142.026576 80.042 -0.5200
9208.273470 79.732 -9.9717
9275.000415 78.918 -17.2310
9342.210891 78.234 -16.3096
9409.908403 78.040 -3.2256
9478.096478 77.781 -8.9932
9546.778672 76.822 -16.9932
9615.958566 76.136 -0.6577
9685.639765 76.657 14.7217
9755.825904 77.250 4.6060
9826.520640 77.084 -4.8457
9897.727659 76.952 16.4136
9969.450674 77.933 28.2031
10041.693423 78.408 15.4043
10114.459673 78.400 19.3311
10187.753217 79.293 36.2007
10261.577877 80.017 28.0522
10335.937500 79.728 15.0786
10410.835964 79.280 14.8408
10486.277173 79.617 19.1494
10562.265060 79.982 10.9526
10638.803587 79.403 2.4990
10715.896743 78.637 3.0161
10793.548548 78.480 3.3594
10871.763050 78.512 -0.5864
10950.544327 78.237 -3.4121
11029.896485 78.011 -1.7759
11109.823662 78.202 -0.4526
11190.330024 78.430 -4.0493
11271.419768 78.449 -5.7896
11353.097122 78.195 -7.5059
11435.366344 77.775 -10.9863
11518.231722 77.239 -14.0254
11601.697577 77.116 -11.3066
11685.768261 77.461 -10.4634
11770.448155 77.234 -17.5166
11855.741674 76.521 -16.9917
11941.653265 76.095 -11.2856
12028.187408 75.665 -16.7310
12115.348612 74.905 -20.3306
12203.141422 74.376 -7.6475
12291.570415 74.160 -0.1162
12380.640201 74.053 3.7388
12470.355424 74.463 13.1895
12560.720760 75.111 11.5591
12651.740920 75.222 7.4351
12743.420650 75.222 15.9868
12835.764729 75.674 23.6357
12928.777972 76.596 24.2070
13022.465227 77.780 24.1733
13116.831378 78.877 21.5820
13211.881345 79.530 15.1050
13307.620084 79.859 10.2271
13404.052584 80.216 5.5986
13501.183875 80.451 -3.3384
13599.019019 80.316 -11.8574
13697.563116 80.005 -17.8574
13796.821305 79.365 -26.0117
13896.798760 78.158 -27.6221
13997.500692 77.149 -21.9004
14098.932352 76.777 -20.0078
14201.099028 76.861 -16.1758
14304.006046 77.238 -16.5967
14407.658770 77.435 -20.1035
14512.062604 77.550 -20.2500
14617.222992 77.760 -24.9946
14723.145416 77.689 -31.1797
14829.835397 77.409 -34.1582
14937.298497 77.124 -38.6528
15045.540320 76.659 -43.3955
15154.566507 76.216 -46.9912
15264.382743 75.768 -53.1548
15374.994752 75.209 -57.4014
15486.408302 74.638 -63.1724
15598.629201 73.581 -72.7495
15711.663298 72.028 -78.1494
15825.516487 70.293 -81.7979
15940.194703 68.325 -74.8584
16055.703925 67.037 -58.6812
16172.050174 66.647 -47.9595
16289.239516 66.940 -31.2529
16407.278061 67.235 -30.2280
16526.171961 67.351 -13.3257
16645.927415 67.726 1.7700
16766.550667 68.628 14.0703
16888.048005 69.738 9.8672
17010.425762 70.403 3.0757
17133.690320 70.828 -1.9224
17257.848103 70.875 -8.9155
17382.905584 70.686 -12.5063
17508.869284 70.516 -14.4316
17635.745768 70.571 -13.7534
17763.541652 70.845 -14.1758
17892.263597 70.928 -13.2720
18021.918315 71.003 -13.9312
18152.512564 71.349 -15.7036
18284.053153 71.681 -19.0166
18416.546939 71.434 -23.4321
18550.000830 70.872 -26.9028
18684.421783 70.303 -31.9272
18819.816805 69.710 -35.8682
18956.192956 69.121 -39.1978
19093.557344 68.454 -42.5513
19231.917131 67.573 -44.9102
19371.279531 66.580 -45.9414
19511.651807 65.779 -46.2095
19653.041280 64.972 -50.2266
19795.455318 63.674 -56.1616
19938.901348 62.298 -60.6904
