* Measurement data measured by REW V5.31.1
* Source: Scarlett 2i4 USB, MICROPHONE, R, volume: no control
* Format: 512k Log Swept Sine, 1 sweep at -18.0 dBFS with no timing reference
* Dated: May 16, 2024 6:42:06 AM
* REW Settings:
*  C-weighting compensation: Off
*  Target level: 75.0 dB
* Note: ; 
* Measurement: bns-before-p1-rr
* Smoothing: 1/48 octave
* Frequency Step: 96 ppo
* Start Frequency: 10.093689 Hz
*
* Freq(Hz) SPL(dB) Phase(degrees)
10.093689 40.713 -9.5429
10.166832 40.452 -10.4351
10.240505 40.131 -11.2794
10.314712 39.797 -11.9569
10.389457 39.445 -12.3118
10.464743 39.015 -12.1723
10.540575 38.447 -11.5629
10.616956 37.804 -10.3623
10.693891 37.154 -8.3594
10.771383 36.548 -5.3075
10.849437 35.951 -0.8583
10.928057 35.371 5.2089
11.007246 34.924 12.7344
11.087009 34.757 21.0518
11.167350 34.975 29.4200
11.248273 35.532 37.4030
11.329783 36.287 44.0436
11.411883 37.096 48.8843
11.494578 37.900 52.0198
11.577873 38.754 54.0099
11.661771 39.616 55.0111
11.746277 40.417 55.1551
11.831395 41.115 54.5439
11.917130 41.733 53.3413
12.003487 42.282 51.7225
12.090469 42.764 49.7959
12.178081 43.178 47.5291
12.266329 43.523 44.8529
12.355216 43.802 41.9461
12.444747 44.019 38.9394
12.534926 44.176 35.6810
12.625760 44.269 32.0615
12.717251 44.297 28.2872
12.809406 44.263 24.5097
12.902228 44.164 20.3834
12.995723 43.998 15.9183
13.089895 43.760 11.3543
13.184750 43.448 6.7426
13.280292 43.062 1.6137
13.376526 42.591 -3.8664
13.473458 42.024 -9.3836
13.571093 41.364 -15.3394
13.669434 40.600 -22.0298
13.768489 39.711 -29.1857
13.868261 38.670 -36.7072
13.968756 37.478 -45.6311
14.069979 36.185 -56.1636
14.171936 34.813 -68.0621
14.274632 33.282 -83.4817
14.378072 31.861 -104.6493
14.482261 31.014 -130.5242
14.587206 30.975 -160.4105
14.692910 31.507 170.7935
14.799381 32.298 149.1845
14.906624 33.255 131.4408
15.014643 34.356 115.4084
15.123446 35.414 101.7751
15.233036 36.319 88.8782
15.343421 37.130 75.6654
15.454606 37.893 63.3320
15.566596 38.628 51.2467
15.679398 39.331 38.7270
15.793018 40.014 26.9663
15.907460 40.688 15.5624
16.022732 41.346 4.0054
16.138840 41.972 -6.6973
16.255788 42.563 -17.0283
16.373585 43.113 -27.3527
16.492234 43.607 -36.8458
16.611744 44.037 -46.1824
16.732119 44.399 -55.4727
16.853367 44.684 -64.0479
16.975494 44.887 -72.7463
17.098505 45.003 -81.3840
17.222408 45.026 -89.4919
17.347209 44.953 -97.9683
17.472914 44.778 -106.3654
17.599530 44.494 -114.5725
17.727063 44.099 -123.3612
17.855521 43.585 -132.1066
17.984909 42.945 -141.3682
18.115235 42.188 -151.5251
18.246506 41.316 -162.1790
18.378727 40.340 -174.6083
18.511907 39.381 171.1829
18.646052 38.493 154.7162
18.781169 37.799 135.2521
18.917265 37.531 115.0151
19.054347 37.696 94.7429
19.192423 38.130 77.2117
19.331499 38.770 62.4972
19.471583 39.485 50.1653
19.612682 40.109 40.2085
19.754804 40.640 31.4033
19.897956 41.039 24.0597
20.042144 41.295 17.4201
20.187378 41.401 11.6461
20.333664 41.349 6.6342
20.481010 41.131 2.2321
20.629424 40.729 -1.0709
20.778913 40.143 -3.4587
20.929486 39.373 -4.0936
21.081150 38.437 -2.4338
21.233912 37.581 2.2940
21.387782 36.932 11.3248
21.542767 36.822 22.8499
21.698874 37.501 34.0555
21.856113 38.609 42.0023
22.014492 39.818 45.7916
22.174018 40.989 46.9233
22.334700 41.918 46.0217
22.496546 42.608 43.9684
22.659566 43.041 41.6340
22.823766 43.225 39.0359
22.989157 43.175 37.3852
23.155745 42.925 36.5438
23.323542 42.568 37.8492
23.492554 42.219 41.4717
23.662790 42.176 47.5853
23.834261 42.528 55.3806
24.006973 43.354 62.1856
24.180938 44.518 67.1762
24.356163 45.742 69.4315
24.532658 46.946 69.8818
24.710431 48.023 69.0063
24.889493 48.987 67.4388
25.069853 49.857 65.6594
25.251519 50.679 63.7773
25.434502 51.494 62.0472
25.618811 52.340 60.1025
25.804456 53.234 58.0406
25.991445 54.158 55.2582
26.179790 55.094 51.9166
26.369500 55.986 47.6339
26.560584 56.805 42.7078
26.753053 57.506 37.0391
26.946917 58.063 31.0742
27.142185 58.452 24.6942
27.338869 58.655 18.6287
27.536977 58.663 12.7094
27.736522 58.478 7.8892
27.937512 58.136 4.2720
28.139959 57.696 2.8362
28.343872 57.359 3.7540
28.549264 57.296 7.2258
28.756143 57.725 11.3364
28.964522 58.565 14.3250
29.174411 59.646 14.8658
29.385821 60.713 12.7487
29.598763 61.648 8.7220
29.813248 62.362 3.2274
30.029287 62.835 -2.8186
30.246891 63.059 -9.3257
30.466073 63.036 -15.4175
30.686842 62.790 -20.7910
30.909212 62.352 -25.0052
31.133193 61.815 -27.2971
31.358797 61.317 -27.6555
31.586035 61.010 -25.9758
31.814921 61.041 -23.7233
32.045465 61.365 -22.1953
32.277680 61.870 -22.2502
32.511577 62.363 -24.2203
32.747169 62.739 -27.4410
32.984469 62.938 -31.5058
33.223488 62.940 -35.7908
33.464239 62.764 -39.6412
33.706735 62.451 -42.7879
33.950987 62.060 -44.8348
34.197010 61.679 -45.7068
34.444816 61.378 -45.7118
34.694417 61.193 -45.1730
34.945827 61.119 -44.7154
35.199059 61.107 -44.5728
35.454126 61.113 -44.6939
35.711041 61.115 -44.9666
35.969818 61.112 -45.2002
36.230470 61.126 -45.3174
36.493011 61.174 -45.4587
36.757455 61.252 -45.8000
37.023814 61.337 -46.5104
37.292104 61.390 -47.6663
37.562338 61.369 -49.1099
37.834530 61.253 -50.5795
38.108695 61.039 -51.7877
38.384846 60.743 -52.4348
38.662999 60.400 -52.2738
38.943167 60.062 -51.2422
39.225365 59.773 -49.4709
39.509608 59.558 -47.2104
39.795911 59.420 -44.7516
40.084289 59.337 -42.3079
40.374756 59.278 -39.9178
40.667328 59.218 -37.3961
40.962020 59.158 -34.3697
41.258848 59.147 -30.4446
41.557827 59.278 -25.4692
41.858972 59.647 -19.8488
42.162299 60.290 -14.5665
42.467824 61.145 -10.6550
42.775564 62.089 -8.5930
43.085533 63.003 -8.2238
43.397749 63.823 -9.0584
43.712227 64.533 -10.5780
44.028983 65.150 -12.4205
44.348036 65.701 -14.4427
44.669400 66.204 -16.6823
44.993093 66.656 -19.2512
45.319131 67.036 -22.2090
45.647532 67.319 -25.4858
45.978313 67.484 -28.8821
46.311491 67.530 -32.1298
46.647083 67.475 -34.9814
46.985107 67.349 -37.2971
47.325581 67.185 -39.0920
47.668521 67.001 -40.4993
48.013947 66.795 -41.6550
48.361876 66.554 -42.5834
48.712326 66.268 -43.1760
49.065315 65.943 -43.2785
49.420863 65.599 -42.8159
49.778987 65.255 -41.8446
50.139706 64.911 -40.4666
50.503039 64.556 -38.6729
50.869005 64.179 -36.2721
51.237623 63.795 -32.9604
51.608912 63.449 -28.4267
51.982891 63.220 -22.3198
52.359580 63.257 -14.2218
52.739000 63.775 -4.3234
53.121168 64.890 5.2747
53.506106 66.429 11.4313
53.893833 68.053 12.8687
54.284370 69.484 10.3481
54.677737 70.582 5.2804
55.073955 71.302 -0.9940
55.473043 71.663 -7.3477
55.875024 71.727 -12.8790
56.279917 71.593 -16.9974
56.687745 71.383 -19.5295
57.098527 71.197 -20.8762
57.512287 71.069 -21.7473
57.929045 70.964 -22.6107
58.348822 70.836 -23.4717
58.771642 70.666 -24.0861
59.197525 70.467 -24.3096
59.626495 70.248 -24.2252
60.058573 69.994 -23.9351
60.493782 69.680 -23.2668
60.932145 69.310 -21.6982
61.373685 68.948 -18.6708
61.818424 68.713 -14.0882
62.266386 68.708 -8.7139
62.717593 68.933 -3.7028
63.172071 69.300 0.2356
63.629842 69.710 3.1765
64.090930 70.112 5.5753
64.555359 70.511 7.8270
65.023154 70.927 10.0103
65.494339 71.369 11.9658
65.968938 71.822 13.5500
66.446976 72.268 14.8123
66.928478 72.703 15.8962
67.413469 73.133 16.8331
67.901975 73.554 17.4993
68.394021 73.943 17.7880
68.889632 74.268 17.7845
69.388835 74.512 17.7375
69.891655 74.673 17.8912
70.398118 74.757 18.4813
70.908252 74.779 19.8066
71.422083 74.789 22.3343
71.939636 74.884 26.4270
72.460941 75.192 31.9313
72.986023 75.795 37.9820
73.514909 76.679 43.4365
74.047629 77.759 47.5340
74.584208 78.938 50.0993
75.124676 80.158 51.3987
75.669061 81.408 51.7545
76.217390 82.693 51.1259
76.769692 83.978 49.0770
77.325997 85.185 45.2731
77.886333 86.223 39.8489
78.450730 87.039 33.3981
79.019216 87.625 26.5748
79.591822 88.009 19.9040
80.168577 88.226 13.6644
80.749512 88.314 8.0673
81.334656 88.324 3.3677
81.924040 88.337 -0.3624
82.517696 88.426 -3.6207
83.115653 88.585 -7.3912
83.717943 88.708 -12.3960
84.324598 88.655 -18.4240
84.935649 88.340 -24.5198
85.551128 87.772 -29.4723
86.171066 87.053 -32.3074
86.795497 86.345 -32.9153
87.424453 85.775 -32.2864
88.057967 85.345 -31.5337
88.696071 84.984 -30.8124
89.338800 84.662 -29.5024
89.986185 84.443 -27.0582
90.638262 84.443 -23.5907
91.295065 84.748 -20.0258
91.956626 85.327 -17.8693
92.622982 86.015 -18.2998
93.294166 86.613 -21.2939
93.970214 86.995 -25.8116
94.651161 87.154 -30.6005
95.337042 87.166 -34.9316
96.027894 87.120 -38.9611
96.723752 87.042 -43.3675
97.424652 86.887 -48.5515
98.130631 86.600 -54.3557
98.841726 86.157 -60.4366
99.557974 85.561 -66.6161
100.279412 84.816 -72.8323
101.006078 83.932 -78.9434
101.738010 82.951 -84.8889
102.475245 81.935 -91.2305
103.217823 80.905 -99.1617
103.965782 79.818 -109.5866
104.719161 78.667 -122.7023
105.477999 77.635 -138.6130
106.242336 77.123 -157.3893
107.012212 77.456 -177.7322
107.787666 78.502 162.9048
108.568740 79.828 145.9771
109.355474 81.090 131.7057
110.147909 82.163 120.1359
110.946086 83.068 111.1704
111.750047 83.860 104.2681
112.559834 84.571 98.7562
113.375489 85.222 94.2720
114.197055 85.839 90.5659
115.024574 86.431 87.1583
115.858089 86.964 83.5931
116.697645 87.395 79.8789
117.543284 87.705 76.2906
118.395051 87.882 72.9061
119.252990 87.902 69.8232
120.117147 87.759 67.7367
120.987565 87.526 67.5852
121.864291 87.343 69.6663
122.747370 87.377 73.8079
123.636848 87.771 79.2002
124.532771 88.537 83.9420
125.435187 89.511 86.3289
126.344142 90.476 85.9902
127.259684 91.309 84.1184
128.181860 92.025 81.9420
129.110718 92.659 79.3584
130.046308 93.186 76.0100
130.988677 93.566 72.1178
131.937875 93.780 68.1182
132.893951 93.835 64.4108
133.856956 93.740 61.0947
134.826938 93.495 58.5210
135.803950 93.152 57.6143
136.788041 92.843 58.7902
137.779264 92.705 61.4846
138.777669 92.808 64.6160
139.783309 93.142 67.4373
140.796237 93.674 69.6416
141.816504 94.326 70.2927
142.844165 94.962 68.9380
143.879273 95.491 66.3027
144.921881 95.880 62.8912
145.972045 96.106 58.8712
147.029819 96.152 54.6298
148.095257 96.023 50.6545
149.168417 95.753 47.3456
150.249353 95.376 44.5870
151.338121 94.886 42.2208
152.434780 94.264 40.5160
153.539385 93.496 39.8596
154.651995 92.631 41.7493
155.772667 91.909 47.8945
156.901460 91.656 56.4987
158.038432 91.912 63.4680
159.183644 92.429 67.4609
160.337154 92.986 69.3311
161.499023 93.510 70.2725
162.669312 94.010 70.6528
163.848081 94.448 69.6506
165.035392 94.723 67.2513
166.231306 94.776 64.5024
167.435887 94.620 62.3534
168.649196 94.344 61.7930
169.871298 94.131 63.6014
171.102255 94.164 66.4841
172.342133 94.392 67.3879
173.590995 94.567 65.6127
174.848907 94.514 62.8816
176.115934 94.201 60.5430
177.392143 93.673 59.6742
178.677599 93.098 61.9885
179.972371 92.764 67.3578
181.276525 92.805 72.2939
182.590129 93.066 74.8499
183.913252 93.357 75.8445
185.245964 93.609 76.1782
186.588332 93.827 76.1987
187.940428 94.049 76.1597
189.302322 94.321 75.8523
190.674085 94.621 74.2817
192.055788 94.828 70.6307
193.447503 94.795 65.2826
194.849303 94.453 59.7886
196.261262 93.862 55.5790
197.683452 93.146 52.5065
199.115948 92.349 49.2501
200.558824 91.402 45.3909
202.012156 90.205 41.3046
203.476019 88.653 37.0310
204.950490 86.609 33.2112
206.435646 84.093 35.1501
207.931564 82.137 76.0719
209.438322 82.494 123.2039
210.955998 83.843 123.3621
212.484672 84.588 117.1698
214.024424 84.607 113.8672
215.575333 84.283 116.0105
217.137481 84.024 121.9258
218.710948 83.902 126.3257
220.295818 83.668 128.3643
221.892172 83.304 132.9646
223.500094 83.414 146.4146
225.119668 84.599 163.5442
226.750978 86.296 168.8235
228.394109 87.672 164.1615
230.049147 88.409 155.3503
231.716178 88.469 145.4617
233.395289 87.913 136.4614
235.086567 86.819 128.6909
236.790102 85.169 121.9036
238.505980 82.920 118.5663
240.234293 80.548 133.5098
241.975130 79.889 -170.7004
243.728581 81.177 -158.3629
245.494739 82.269 -166.5232
247.273695 82.303 -178.2012
249.065542 81.288 172.1172
250.870374 79.622 164.4023
252.688284 78.724 148.7970
254.519367 80.783 13.0797
256.363720 84.256 -24.8553
258.221437 87.132 -44.5234
260.092616 88.978 -63.1954
261.977354 89.833 -79.9811
263.875750 89.875 -92.8896
265.787903 89.330 -100.9438
267.713911 88.458 -103.2310
269.653877 87.725 -98.0255
271.607900 87.824 -85.6047
273.576083 88.921 -74.8062
275.558528 90.272 -73.8156
277.555338 91.203 -79.5363
279.566619 91.531 -86.5259
281.592474 91.389 -91.2612
283.633009 91.063 -92.2969
285.688331 90.798 -91.5972
287.758546 90.566 -92.2269
289.843763 90.240 -92.8319
291.944090 89.890 -91.2048
294.059638 89.686 -88.4617
296.190515 89.634 -87.0686
298.336833 89.525 -88.6104
300.498705 89.113 -92.0244
302.676243 88.332 -93.9637
304.869559 87.429 -91.2329
307.078770 86.726 -87.8357
309.303989 86.035 -90.9008
311.545334 84.800 -99.0498
313.802919 82.743 -107.7063
316.076865 80.624 -101.2583
318.367288 81.034 30.6542
320.674309 83.557 30.9733
322.998047 85.894 24.6753
325.338624 87.605 18.1490
327.696162 88.853 12.6775
330.070783 89.746 7.0187
332.462612 90.229 -0.1345
334.871773 90.192 -7.9418
337.298392 89.653 -13.4371
339.742595 88.895 -13.2874
342.204510 88.371 -8.9978
344.684265 88.241 -6.0942
347.181989 88.287 -6.0634
349.697813 88.274 -8.1527
352.231868 88.069 -11.7300
354.784285 87.597 -16.4253
357.355198 86.749 -22.7797
359.944741 85.333 -30.1577
362.553049 83.265 -32.5818
365.180258 81.281 -12.8416
367.826505 81.167 20.1923
370.491927 82.472 22.2184
373.176665 83.423 8.9681
375.880856 83.589 -8.6422
378.604644 83.124 -29.8534
381.348169 82.148 -56.5197
384.111575 80.799 -88.1927
386.895006 79.363 -120.9220
389.698607 78.210 -146.4471
392.522524 77.740 -160.1495
395.366904 77.992 -167.1865
398.231895 78.478 -173.0221
401.117648 78.848 -177.1051
404.024312 79.084 -179.0305
406.952038 79.345 -177.8083
409.900981 79.755 -176.0857
412.871292 79.967 179.3030
415.863128 79.413 170.0117
418.876643 77.856 163.8063
421.911996 76.055 176.0156
424.969344 76.650 -121.5321
428.048847 79.598 -89.1979
431.150666 82.250 -94.4667
434.274961 83.794 -108.2740
437.421897 84.308 -121.2104
440.591636 84.109 -130.1844
443.784345 83.462 -135.8741
447.000189 82.568 -137.8541
450.239337 81.605 -137.9243
453.501956 80.454 -140.4607
456.788219 78.856 -140.3638
460.098294 77.340 -120.3578
463.432356 77.149 -94.4657
466.790578 77.762 -90.9899
470.173135 77.911 -95.6492
473.580203 77.237 -99.6344
477.011961 75.909 -97.9586
480.468586 74.639 -82.6151
483.950259 74.522 -58.6870
487.457163 75.248 -51.9587
490.989478 75.725 -54.5176
494.547390 75.676 -57.4379
498.131084 75.103 -61.9271
501.740748 73.988 -64.5021
505.376568 72.727 -60.1399
509.038735 71.774 -58.7716
512.727439 70.747 -67.2806
516.442874 69.105 -77.3226
520.185232 67.226 -81.0125
523.954708 66.507 -85.8430
527.751500 67.793 -97.8450
531.575805 70.426 -108.5238
535.427822 73.158 -122.7349
539.307753 75.149 -141.9264
543.215800 76.152 -161.4064
547.152165 76.429 -174.3811
551.117055 76.598 179.1300
555.110677 76.756 169.8711
559.133237 76.734 158.7694
563.184947 76.412 140.0798
567.266018 75.364 107.4741
571.376661 73.790 47.6321
575.517092 72.999 -25.9849
579.687526 73.382 -59.9882
583.888181 73.734 -79.8722
588.119275 74.142 -78.8342
592.381030 76.175 -32.9287
596.673667 78.965 -27.2583
600.997410 80.975 -39.6364
605.352485 81.871 -54.7424
609.739119 81.752 -68.7344
614.157540 80.795 -77.8102
618.607979 79.932 -56.8818
623.090667 80.466 -33.2206
627.605839 81.439 -38.0452
632.153730 81.822 -46.8563
636.734576 81.461 -54.4763
641.348617 80.700 -54.3712
645.996094 80.436 -45.5212
650.677248 80.903 -44.2014
655.392323 81.377 -51.3545
660.141566 81.426 -62.3367
664.925224 81.032 -73.7482
669.743546 80.600 -82.1438
674.596784 80.528 -92.7753
679.485191 80.457 -109.5912
684.409020 79.958 -127.6476
689.368530 79.096 -142.2924
694.363979 78.173 -153.5228
699.395626 77.239 -166.0682
704.463736 76.065 176.9841
709.568570 75.149 149.0302
714.710396 76.326 18.7782
719.889483 79.180 -30.6989
725.106099 81.700 -53.1412
730.360516 83.277 -71.6436
735.653010 84.028 -85.7683
740.983855 84.297 -95.4778
746.353329 84.172 -104.4595
751.761713 83.599 -111.4263
757.209288 82.554 -118.5308
762.696339 80.840 -123.8208
768.223151 78.947 -113.4595
773.790013 79.000 -68.6626
779.397214 81.047 -53.9912
785.045047 82.674 -65.9524
790.733808 83.018 -84.4070
796.463791 82.166 -100.7104
802.235296 80.613 -113.0693
808.048623 78.761 -128.9678
813.904077 76.456 -152.9180
819.801961 73.846 166.3384
825.742584 72.886 -5.8757
831.726255 74.448 -25.5437
837.753287 77.048 -33.4585
843.823992 79.124 -54.0930
849.938689 80.094 -79.2407
856.097695 80.142 -100.9099
862.301332 79.529 -115.9832
868.549922 78.710 -123.9678
874.843793 78.215 -124.1514
881.183272 78.223 -124.9648
887.568689 77.934 -134.3540
894.000378 77.002 -139.8291
900.478673 76.245 -136.4546
907.003913 76.278 -138.0984
913.576437 76.054 -156.4746
920.196588 74.446 -178.7434
926.864712 72.254 -165.5002
933.581156 73.097 -116.3452
940.346270 76.404 -128.2488
947.160407 79.314 -154.5110
954.023921 81.206 175.1650
960.937172 82.121 145.6345
967.900519 82.029 116.8870
974.914325 80.756 89.8003
981.978956 78.386 66.0010
989.094780 75.642 34.7625
996.262169 74.173 -40.4319
1003.481495 74.634 -105.2529
1010.753136 75.291 -138.0547
1018.077470 75.200 -163.4661
1025.454879 74.041 -178.0718
1032.885748 72.045 -124.8999
1040.370463 69.685 -114.0464
1047.909417 67.673 -103.8950
1055.503000 67.209 -111.5186
1063.151610 68.041 133.1875
1070.855645 69.394 68.4810
1078.615506 71.003 64.6108
1086.431599 72.069 59.5874
1094.304330 72.262 60.0273
1102.234110 72.375 71.3757
1110.221353 72.729 81.2473
1118.266475 72.588 80.8267
1126.369895 72.033 110.8872
1134.532035 72.592 157.8022
1142.753322 73.699 163.6575
1151.034184 74.716 172.0674
1159.375052 75.830 -178.1187
1167.776361 76.796 -175.1492
1176.238550 76.768 172.2656
1184.762060 75.332 153.5378
1193.347334 72.895 156.1404
1201.994821 71.721 -40.1526
1210.704971 73.013 -38.1067
1219.478238 74.069 -50.1633
1228.315080 73.743 -65.3608
1237.215957 72.039 -77.5876
1246.181334 69.600 -11.7427
1255.211678 67.452 14.4604
1264.307459 66.716 55.4702
1273.469152 68.629 164.8755
1282.697235 70.803 161.2378
1291.992188 71.813 157.1619
1301.354495 72.244 166.7993
1310.784647 72.519 171.4404
1320.283132 72.279 162.9097
1329.850448 72.299 128.6523
1339.487093 73.378 -34.2910
1349.193569 74.544 -50.8621
1358.970381 75.587 -48.4065
1368.818041 76.873 -40.3462
1378.737061 77.795 -47.1831
1388.727958 77.918 -65.6067
1398.791253 77.639 -98.4746
1408.927471 77.987 -149.9756
1419.137140 78.672 165.4468
1429.420793 78.594 137.3301
1439.778965 77.362 118.8872
1450.212197 75.653 111.1082
1460.721033 75.736 -104.0662
1471.306019 77.755 -101.3843
1481.967709 80.047 -94.7000
1492.706658 81.603 -95.9966
1503.523426 82.051 -102.2263
1514.418576 81.161 -111.5295
1525.392678 78.880 -119.3577
1536.446302 75.828 -121.3569
1547.580025 73.763 35.0422
1558.794428 73.884 57.2546
1570.090095 75.053 76.8066
1581.467615 75.510 82.0183
1592.927581 75.400 112.5557
1604.470591 75.640 133.4800
1616.097246 75.426 139.8997
1627.808153 74.826 -158.3213
1639.603922 75.172 -117.6790
1651.485168 76.500 -89.0601
1663.452510 77.615 -85.9290
1675.506573 78.168 -80.4514
1687.647984 79.254 17.5635
1699.877377 80.485 15.8704
1712.195390 80.381 6.5884
1724.602663 78.600 9.2703
1737.099845 76.210 39.4546
1749.687587 75.635 77.0674
1762.366544 77.489 -171.9373
1775.137379 79.187 -173.0000
1788.000756 79.035 176.5532
1800.957346 77.730 -178.0835
1814.007826 78.076 -60.0726
1827.152874 79.784 -45.3099
1840.393177 80.373 -49.6862
1853.729425 80.315 -25.1313
1867.162312 80.401 -5.5471
1880.692540 79.560 -15.7085
1894.320813 77.691 42.5551
1908.047843 76.445 128.1974
1921.874344 76.620 142.3171
1935.801038 77.486 -175.5393
1949.828650 77.980 -164.8146
1963.957912 78.315 -101.3210
1978.189561 79.392 -65.5369
1992.524338 80.215 -63.6154
2006.962991 80.162 -67.5902
2021.506272 79.672 13.2771
2036.154940 79.434 52.6763
2050.909758 78.630 58.9808
2065.771495 77.532 82.4993
2080.740927 77.698 114.3539
2095.818833 79.656 -139.0941
2111.006001 81.219 -129.2141
2126.303220 81.037 -133.6715
2141.711290 79.447 -126.5696
2157.231013 77.111 -99.6855
2172.863198 74.723 -57.6094
2188.608660 72.966 19.6211
2204.468221 72.461 53.7942
2220.442706 73.352 116.2593
2236.532950 75.646 -173.1328
2252.739789 78.127 -148.5020
2269.064070 79.798 -134.2302
2285.506644 79.938 -131.8000
2302.068367 78.958 -98.4395
2318.750104 78.544 -26.4020
2335.552723 78.353 -13.7617
2352.477101 77.363 2.3536
2369.524119 75.969 32.7836
2386.694668 75.301 123.4018
2403.989641 75.572 158.1788
2421.409941 75.753 178.0877
2438.956476 76.325 -113.1252
2456.630160 77.612 -75.8110
2474.431915 78.455 -56.3893
2492.362668 78.186 -45.4554
2510.423356 76.475 -32.9347
2528.614918 74.122 -5.8049
2546.938304 73.422 27.3646
2565.394469 74.525 -139.5505
2583.984375 75.564 -122.7130
2602.708991 76.273 -103.1021
2621.569293 75.712 -101.9773
2640.566265 74.085 -86.1144
2659.700897 73.004 -8.3141
2678.974186 73.134 -38.2291
2698.387137 74.233 -152.9896
2717.940763 75.775 -134.3573
2737.636082 77.414 -116.9245
2757.474121 78.453 -104.2889
2777.455915 78.265 -102.7770
2797.582506 77.252 3.2294
2817.854942 76.813 23.1313
2838.274281 77.612 131.5240
2858.841586 78.619 137.7645
2879.557931 78.395 145.0225
2900.424394 77.454 -161.1966
2921.442065 77.025 -144.6200
2942.612039 77.656 -145.5354
2963.935418 78.533 0.7871
2985.413316 78.110 -25.0484
3007.046852 76.856 127.8033
3028.837153 75.364 108.8286
3050.785356 73.385 133.1399
3072.892604 72.310 179.1024
3095.160050 72.246 84.8979
3117.588856 71.876 60.8060
3140.180190 72.206 119.5254
3162.935230 73.299 168.0160
3185.855163 74.004 -174.4082
3208.941182 74.437 -149.4417
3232.194493 74.913 -9.8356
3255.616307 75.578 50.5538
3279.207844 75.822 93.4949
3302.970336 75.272 104.7776
3326.905021 74.115 128.4935
3351.013146 73.698 178.7964
3375.295969 75.597 -29.0758
3399.754755 77.841 -13.1530
3424.390779 78.187 -4.3439
3449.205326 76.868 82.9534
3474.199690 75.880 -171.9675
3499.375173 76.281 -120.8873
3524.733088 76.610 -101.8577
3550.274757 76.726 -66.5515
3576.001511 77.109 20.2394
3601.914692 76.737 27.8673
3628.015651 75.753 -0.2332
3654.305748 76.489 -84.1904
3680.786354 78.018 -46.3887
3707.458849 78.943 -14.1185
3734.324624 78.949 10.4790
3761.385080 78.289 58.6479
3788.641627 77.330 102.2422
3816.095686 76.294 141.5095
3843.748688 76.209 128.5663
3871.602076 77.833 28.2982
3899.657300 79.684 42.2585
3927.915825 81.010 57.7533
3956.379122 81.202 45.0316
3985.048676 80.404 33.1467
4013.925981 79.852 37.7753
4043.012544 79.984 28.1687
4072.309879 79.648 35.8584
4101.819515 79.161 45.7509
4131.542990 78.903 16.9473
4161.481854 78.736 -11.6670
4191.637667 78.677 12.5150
4222.012001 78.295 17.4646
4252.606441 77.152 -9.5684
4283.422580 76.453 -53.1483
4314.462026 77.073 -48.0619
4345.726396 77.539 -23.6624
4377.217321 77.366 3.0449
4408.936442 76.574 8.0448
4440.885413 76.217 -4.1121
4473.065899 77.086 -21.2092
4505.479579 77.072 -25.2899
4538.128141 75.853 -0.3624
4571.013288 74.918 32.6528
4604.136735 75.482 -20.6860
4637.500207 76.725 -31.6305
4671.105446 77.097 -19.3678
4704.954201 76.617 8.0820
4739.048239 76.280 6.5613
4773.389336 77.041 -9.7795
4807.979283 78.096 -11.6771
4842.819883 78.674 -13.4891
4877.912952 78.597 -32.4595
4913.260320 78.277 -46.8379
4948.863830 78.724 -38.8569
4984.725337 79.136 -38.9614
5020.846712 79.284 -52.1454
5057.229836 79.311 -75.3303
5093.876609 78.761 -82.8799
5130.788938 78.238 -59.2477
5167.968750 78.705 -41.3005
5205.417982 79.750 -49.0311
5243.138586 80.254 -51.6605
5281.132530 80.432 -49.1710
5319.401793 80.220 -52.5078
5357.948371 79.852 -54.1465
5396.774274 79.754 -61.5721
5435.881525 79.533 -75.9553
5475.272163 79.194 -82.9219
5514.948243 78.920 -85.1161
5554.911831 78.156 -94.5818
5595.165012 77.101 -109.5369
5635.709884 76.942 -81.8796
5676.548561 77.091 -81.9216
5717.683172 76.278 -63.0137
5759.115861 75.869 126.8862
5800.848789 76.059 -142.9556
5842.884130 76.292 -57.4675
5885.224077 76.557 -14.9185
5927.870837 76.693 112.7777
5970.826633 77.001 95.5410
6014.093704 77.990 0.5093
6057.674306 79.150 47.9812
6101.570711 80.152 80.9639
6145.785208 80.745 -88.1392
6190.320101 80.079 -32.4600
6235.177712 78.688 20.3625
6280.360380 78.497 -16.0103
6325.870460 79.843 -16.0034
6371.710325 80.249 -7.3937
6417.882365 79.957 -8.2316
6464.388986 80.801 -34.1777
6511.232613 81.394 -43.6685
6558.415689 80.750 -7.2637
6605.940673 79.709 -25.1118
6653.810042 79.222 -30.7324
6702.026292 79.092 -28.6383
6750.591937 78.693 -62.5161
6799.509509 78.439 -56.6580
6848.781558 78.200 -20.9415
6898.410653 77.290 -18.6761
6948.399380 76.741 -31.1014
6998.750346 76.455 -21.3018
7049.466176 76.589 -4.3551
7100.549514 77.490 -10.5347
7152.003023 77.869 -14.8392
7203.829385 77.686 -19.1357
7256.031302 78.080 -23.5609
7308.611496 78.588 -20.0514
7361.572708 78.098 -25.7318
7414.917698 77.322 -38.7510
7468.649249 76.978 -33.7810
7522.770160 76.847 -38.2820
7577.283253 76.965 -39.2151
7632.191371 77.217 -29.0299
7687.497376 76.852 -35.3177
7743.204151 76.340 -42.5641
7799.314600 76.677 -40.6923
7855.831649 77.646 -45.8370
7912.758244 78.534 -64.0299
7970.097352 78.626 -70.9939
8027.851962 77.874 -73.8765
8086.025087 76.813 -83.4285
8144.619758 76.141 -85.3406
8203.639030 75.935 -83.1564
8263.085980 76.150 -74.1177
8322.963708 75.978 -64.1876
8383.275334 75.580 -68.1177
8444.024002 75.374 -67.9119
8505.212881 75.024 -72.5952
8566.845160 74.995 -90.2563
8628.924051 75.286 -53.4226
8691.452792 74.823 -40.4663
8754.434642 73.760 -65.6609
8817.872884 73.003 -37.2283
8881.770826 72.732 -28.9974
8946.131799 73.219 -34.4935
9010.959157 74.119 -29.0175
9076.256282 74.668 -41.2310
9142.026576 74.567 -34.5303
9208.273470 74.172 -40.3903
9275.000415 74.312 -35.0681
9342.210891 74.685 -26.2689
9409.908403 74.488 -36.0100
9478.096478 73.947 -13.1394
9546.778672 73.924 -28.6704
9615.958566 73.902 -38.5978
9685.639765 73.604 -40.1514
9755.825904 73.528 -41.1630
9826.520640 73.532 -57.9427
9897.727659 73.227 -57.2661
9969.450674 72.369 -70.4362
10041.693423 71.592 -86.8339
10114.459673 71.919 -95.8879
10187.753217 72.944 -106.8323
10261.577877 73.019 -118.3252
10335.937500 72.132 -107.3673
10410.835964 70.878 -92.9897
10486.277173 70.201 -65.8284
10562.265060 70.770 22.9423
10638.803587 71.319 38.3799
10715.896743 71.117 54.6655
10793.548548 71.455 105.5299
10871.763050 72.719 115.2290
10950.544327 73.196 97.7766
11029.896485 72.532 77.8004
11109.823662 71.481 68.4303
11190.330024 71.401 69.4344
11271.419768 72.216 61.4628
11353.097122 72.826 57.6393
11435.366344 73.122 47.5156
11518.231722 73.158 42.2823
11601.697577 72.723 41.5863
11685.768261 72.516 52.0939
11770.448155 73.224 54.7946
11855.741674 74.125 42.7872
11941.653265 74.742 29.6418
12028.187408 74.682 22.7030
12115.348612 74.143 28.3105
12203.141422 73.812 29.3978
12291.570415 73.878 24.5929
12380.640201 74.214 21.8016
12470.355424 74.375 15.2592
12560.720760 73.913 9.8455
12651.740920 73.325 13.6813
12743.420650 73.291 18.9418
12835.764729 73.599 14.0647
12928.777972 73.711 5.7095
13022.465227 73.639 2.7798
13116.831378 73.577 -0.2003
13211.881345 73.454 -4.4132
13307.620084 72.952 -11.5991
13404.052584 71.885 -22.9631
13501.183875 70.344 -32.5139
13599.019019 68.430 -40.7598
13697.563116 66.655 -33.7939
13796.821305 66.017 -18.7596
13896.798760 66.654 -18.0999
13997.500692 67.660 -8.8719
14098.932352 68.014 -6.5555
14201.099028 67.358 -1.5648
14304.006046 66.659 11.7272
14407.658770 66.513 10.0098
14512.062604 66.582 1.3987
14617.222992 67.267 4.5468
14723.145416 68.005 61.2812
14829.835397 67.609 66.1802
14937.298497 66.856 74.5667
15045.540320 66.581 108.8823
15154.566507 65.971 94.8199
15264.382743 65.337 75.6488
15374.994752 65.111 67.2075
15486.408302 64.539 85.1373
15598.629201 64.098 84.4281
15711.663298 63.949 78.8594
15825.516487 63.611 80.8484
15940.194703 63.217 79.0099
16055.703925 63.139 83.0276
16172.050174 63.614 97.6213
16289.239516 64.178 102.7734
16407.278061 64.481 105.0088
16526.171961 64.883 110.2253
16645.927415 65.861 102.5988
16766.550667 66.613 86.0840
16888.048005 66.647 74.3413
17010.425762 66.265 67.6333
17133.690320 65.664 62.2650
17257.848103 64.456 52.4700
17382.905584 62.700 49.0806
17508.869284 61.346 53.0786
17635.745768 60.654 59.5649
17763.541652 60.318 67.8868
17892.263597 59.776 65.9308
18021.918315 58.975 65.1471
18152.512564 58.426 69.4634
18284.053153 57.651 70.2603
18416.546939 56.574 78.7523
18550.000830 56.026 83.5762
18684.421783 55.492 85.5220
18819.816805 54.762 95.5739
18956.192956 53.966 102.5272
19093.557344 53.280 103.1418
19231.917131 52.910 108.7917
19371.279531 52.574 112.5967
19511.651807 51.682 109.4692
19653.041280 50.043 108.9548
19795.455318 48.182 111.0087
19938.901348 46.629 113.4408
