* Measurement data measured by REW V5.31.1
* Source: Scarlett 2i4 USB, MICROPHONE, R, volume: no control
* Format: 512k Log Swept Sine, 1 sweep at -18.0 dBFS with no timing reference
* Dated: May 16, 2024 6:40:49 AM
* REW Settings:
*  C-weighting compensation: Off
*  Target level: 75.0 dB
* Note: ; 
* Measurement: bns-before-p1-l
* Smoothing: 1/48 octave
* Frequency Step: 96 ppo
* Start Frequency: 10.093689 Hz
*
* Freq(Hz) SPL(dB) Phase(degrees)
10.093689 35.329 45.7252
10.166832 35.620 42.1607
10.240505 35.971 38.4413
10.314712 36.332 34.8172
10.389457 36.685 31.4814
10.464743 36.996 28.5030
10.540575 37.238 25.4974
10.616956 37.434 22.5829
10.693891 37.593 19.9968
10.771383 37.717 17.9814
10.849437 37.792 16.4057
10.928057 37.825 15.1231
11.007246 37.848 14.2780
11.087009 37.894 14.0425
11.167350 37.967 14.5558
11.248273 38.054 15.7340
11.329783 38.191 17.3945
11.411883 38.426 19.3039
11.494578 38.797 21.3639
11.577873 39.292 23.7460
11.661771 39.879 25.9524
11.746277 40.524 27.5334
11.831395 41.220 28.3688
11.917130 41.982 28.8828
12.003487 42.770 28.9060
12.090469 43.536 28.2895
12.178081 44.258 27.0322
12.266329 44.951 25.4055
12.355216 45.606 23.4895
12.444747 46.208 21.3011
12.534926 46.752 18.7611
12.625760 47.241 15.9516
12.717251 47.674 13.0576
12.809406 48.049 10.1705
12.902228 48.365 7.0530
12.995723 48.621 3.8112
13.089895 48.819 0.6734
13.184750 48.959 -2.3130
13.280292 49.038 -5.4248
13.376526 49.059 -8.4623
13.473458 49.026 -11.1729
13.571093 48.933 -13.6946
13.669434 48.786 -16.0826
13.768489 48.599 -18.1364
13.868261 48.372 -19.6812
13.968756 48.106 -20.8090
14.069979 47.832 -21.5086
14.171936 47.582 -21.7074
14.274632 47.350 -21.2202
14.378072 47.163 -20.2433
14.482261 47.066 -19.1064
14.587206 47.075 -17.6811
14.692910 47.176 -16.1251
14.799381 47.351 -14.9319
14.906624 47.605 -14.2196
15.014643 47.923 -13.8574
15.123446 48.253 -13.9980
15.233036 48.570 -14.7384
15.343421 48.877 -15.9442
15.454606 49.150 -17.4214
15.566596 49.370 -19.1657
15.679398 49.543 -21.2262
15.793018 49.667 -23.2862
15.907460 49.739 -25.2532
16.022732 49.763 -27.2641
16.138840 49.756 -29.0540
16.255788 49.724 -30.4903
16.373585 49.675 -31.6821
16.492234 49.645 -32.5766
16.611744 49.644 -33.0523
16.732119 49.683 -33.2335
16.853367 49.788 -33.3727
16.975494 49.969 -33.3619
17.098505 50.210 -33.4032
17.222408 50.501 -33.7910
17.347209 50.840 -34.4030
17.472914 51.195 -35.2985
17.599530 51.541 -36.5737
17.727063 51.876 -38.1200
17.855521 52.177 -39.7482
17.984909 52.437 -41.5495
18.115235 52.656 -43.3436
18.246506 52.836 -44.8945
18.378727 52.976 -46.3239
18.511907 53.101 -47.4132
18.646052 53.217 -48.0707
18.781169 53.344 -48.3841
18.917265 53.512 -48.3412
19.054347 53.728 -47.9317
19.192423 54.003 -47.4547
19.331499 54.346 -46.9281
19.471583 54.741 -46.4893
19.612682 55.170 -46.3602
19.754804 55.623 -46.4494
19.897956 56.072 -46.8073
20.042144 56.508 -47.4307
20.187378 56.922 -48.1759
20.333664 57.306 -49.0117
20.481010 57.665 -49.8872
20.629424 58.006 -50.6864
20.778913 58.334 -51.4472
20.929486 58.661 -52.1631
21.081150 58.990 -52.8235
21.233912 59.323 -53.5526
21.387782 59.660 -54.3474
21.542767 59.990 -55.2576
21.698874 60.304 -56.3448
21.856113 60.590 -57.5075
22.014492 60.834 -58.7431
22.174018 61.035 -59.9458
22.334700 61.190 -60.9280
22.496546 61.311 -61.6854
22.659566 61.420 -61.9574
22.823766 61.540 -61.8139
22.989157 61.720 -61.2447
23.155745 61.975 -60.3559
23.323542 62.334 -59.5752
23.492554 62.786 -58.9583
23.662790 63.299 -59.0172
23.834261 63.845 -59.6308
24.006973 64.366 -60.9523
24.180938 64.841 -62.7802
24.356163 65.237 -64.8888
24.532658 65.553 -67.1303
24.710431 65.792 -69.0812
24.889493 65.984 -70.6854
25.069853 66.175 -71.5534
25.251519 66.427 -71.9046
25.434502 66.801 -71.6471
25.618811 67.328 -71.5645
25.804456 68.015 -71.7798
25.991445 68.797 -73.1430
26.179790 69.626 -75.4940
26.369500 70.414 -79.1144
26.560584 71.123 -83.6260
26.753053 71.703 -88.9703
26.946917 72.137 -94.6746
27.142185 72.408 -100.7619
27.338869 72.509 -106.5399
27.536977 72.441 -112.1188
27.736522 72.222 -116.6821
27.937512 71.896 -120.2039
28.139959 71.528 -121.9889
28.343872 71.264 -122.2045
28.549264 71.213 -120.8184
28.756143 71.486 -119.2264
28.964522 72.034 -118.3320
29.174411 72.754 -119.0144
29.385821 73.483 -121.4829
29.598763 74.131 -125.3720
29.813248 74.622 -130.3919
30.029287 74.931 -135.8707
30.246891 75.046 -141.7134
30.466073 74.973 -147.2174
30.686842 74.733 -152.1718
30.909212 74.357 -156.2546
31.133193 73.911 -159.0409
31.358797 73.477 -160.6008
31.586035 73.135 -160.8940
31.814921 72.960 -160.5904
32.045465 72.941 -160.5081
32.277680 73.037 -160.8893
32.511577 73.154 -162.1125
32.747169 73.225 -163.8780
32.984469 73.213 -165.9509
33.223488 73.107 -167.8694
33.464239 72.940 -169.2044
33.706735 72.764 -169.8004
33.950987 72.646 -169.5445
34.197010 72.656 -168.7628
34.444816 72.815 -167.9668
34.694417 73.106 -167.5858
34.945827 73.482 -167.9824
35.199059 73.877 -169.2677
35.454126 74.246 -171.3073
35.711041 74.556 -173.9431
35.969818 74.789 -176.9971
36.230470 74.933 179.7678
36.493011 74.987 176.5421
36.757455 74.956 173.4868
37.023814 74.851 170.7643
37.292104 74.689 168.5368
37.562338 74.499 166.8875
37.834530 74.306 165.8095
38.108695 74.132 165.2439
38.384846 73.990 165.0862
38.662999 73.882 165.2246
38.943167 73.801 165.6187
39.225365 73.747 166.3049
39.509608 73.727 167.3282
39.795911 73.755 168.7058
40.084289 73.844 170.4128
40.374756 74.008 172.4020
40.667328 74.259 174.6738
40.962020 74.622 177.2854
41.258848 75.143 -179.8089
41.557827 75.868 -176.9412
41.858972 76.804 -174.7373
42.162299 77.903 -173.8612
42.467824 79.076 -174.7049
42.775564 80.229 -177.2862
43.085533 81.291 178.6447
43.397749 82.223 173.4495
43.712227 83.011 167.4919
44.028983 83.656 161.0759
44.348036 84.168 154.4244
44.669400 84.559 147.6882
44.993093 84.840 140.9686
45.319131 85.019 134.3440
45.647532 85.099 127.8990
45.978313 85.088 121.7427
46.311491 84.995 116.0069
46.647083 84.841 110.8194
46.985107 84.658 106.2548
47.325581 84.479 102.2832
47.668521 84.332 98.7592
48.013947 84.226 95.4820
48.361876 84.154 92.3023
48.712326 84.103 89.1978
49.065315 84.072 86.2493
49.420863 84.080 83.5294
49.778987 84.157 80.9760
50.139706 84.324 78.3599
50.503039 84.578 75.3930
50.869005 84.897 71.8789
51.237623 85.261 67.7625
51.608912 85.662 63.0290
51.982891 86.105 57.5509
52.359580 86.578 51.0378
52.739000 87.041 43.1565
53.121168 87.423 33.7212
53.506106 87.641 22.7972
53.893833 87.623 10.6404
54.284370 87.313 -2.3447
54.677737 86.673 -15.6259
55.073955 85.688 -28.5829
55.473043 84.366 -40.5350
55.875024 82.757 -50.8373
56.279917 80.952 -59.0602
56.687745 79.082 -65.3964
57.098527 77.244 -70.8855
57.512287 75.419 -76.7620
57.929045 73.467 -83.5831
58.348822 71.213 -91.2620
58.771642 68.514 -99.8666
59.197525 65.375 -111.6597
59.626495 62.655 -146.1804
60.058573 62.822 105.0709
60.493782 65.401 78.8474
60.932145 67.955 65.5468
61.373685 69.923 54.5314
61.818424 71.377 44.5353
62.266386 72.450 35.3496
62.717593 73.247 26.7829
63.172071 73.832 18.7128
63.629842 74.254 11.1778
64.090930 74.564 4.3268
64.555359 74.844 -1.6868
65.023154 75.181 -7.0016
65.494339 75.633 -12.0789
65.968938 76.196 -17.4882
66.446976 76.830 -23.5071
66.928478 77.495 -30.1222
67.413469 78.173 -37.1955
67.901975 78.859 -44.6259
68.394021 79.549 -52.3934
68.889632 80.236 -60.4957
69.388835 80.908 -68.8977
69.891655 81.563 -77.5425
70.398118 82.201 -86.3969
70.908252 82.820 -95.5099
71.422083 83.407 -104.9738
71.939636 83.934 -114.8382
72.460941 84.368 -124.9954
72.986023 84.689 -135.2173
73.514909 84.902 -145.1593
74.047629 85.037 -154.5552
74.584208 85.146 -163.2959
75.124676 85.281 -171.5660
75.669061 85.468 -179.8042
76.217390 85.682 171.4139
76.769692 85.853 161.6875
77.325997 85.890 150.8873
77.886333 85.706 139.2354
78.450730 85.233 127.0734
79.019216 84.418 114.7499
79.591822 83.200 102.6255
80.168577 81.490 91.0479
80.749512 79.175 80.8727
81.334656 76.294 75.6719
81.924040 74.235 116.2932
82.517696 75.614 -164.1512
83.115653 78.665 -164.3557
83.717943 81.381 -171.8595
84.324598 83.512 178.1824
84.935649 85.092 166.8096
85.551128 86.170 154.9241
86.171066 86.825 143.5343
86.795497 87.182 133.5197
87.424453 87.399 125.2124
88.057967 87.610 118.1649
88.696071 87.863 111.5615
89.338800 88.142 104.8744
89.986185 88.426 98.0398
90.638262 88.725 91.0969
91.295065 89.060 83.7625
91.956626 89.407 75.3538
92.622982 89.660 65.2693
93.294166 89.674 53.5948
93.970214 89.335 41.2266
94.651161 88.613 29.5165
95.337042 87.585 19.6968
96.027894 86.405 12.2175
96.723752 85.227 6.5299
97.424652 84.128 1.7919
98.130631 83.122 -2.5040
98.841726 82.190 -6.7113
99.557974 81.293 -11.0941
100.279412 80.379 -15.6000
101.006078 79.421 -19.9504
101.738010 78.426 -23.8834
102.475245 77.430 -27.3267
103.217823 76.482 -30.5293
103.965782 75.612 -33.9706
104.719161 74.821 -38.1028
105.477999 74.093 -43.0302
106.242336 73.469 -48.3057
107.012212 73.114 -53.8184
107.787666 73.195 -60.7673
108.568740 73.712 -70.3783
109.355474 74.537 -82.6486
110.147909 75.521 -97.0011
110.946086 76.515 -112.5284
111.750047 77.440 -127.9407
112.559834 78.307 -142.2468
113.375489 79.157 -155.2223
114.197055 79.985 -167.3108
115.024574 80.724 -179.1245
115.858089 81.274 169.2697
116.697645 81.598 158.6364
117.543284 81.760 149.8260
118.395051 81.859 142.7861
119.252990 81.948 137.0592
120.117147 82.064 132.6823
120.987565 82.285 129.6680
121.864291 82.683 127.4193
122.747370 83.268 125.0814
123.636848 83.983 121.7981
124.532771 84.722 117.1431
125.435187 85.398 111.2776
126.344142 85.960 104.6198
127.259684 86.410 97.6931
128.181860 86.791 90.8354
129.110718 87.138 83.7501
130.046308 87.426 75.8575
130.988677 87.584 66.9889
131.937875 87.545 57.4309
132.893951 87.275 47.6770
133.856956 86.773 38.1522
134.826938 86.049 28.9902
135.803950 85.097 20.2081
136.788041 83.895 11.9174
137.779264 82.402 4.1807
138.777669 80.535 -2.8025
139.783309 78.183 -7.8612
140.796237 75.408 -5.4265
141.816504 73.381 36.1329
142.844165 74.123 83.4805
143.879273 76.205 87.6302
144.921881 77.989 84.0781
145.972045 79.307 79.7273
147.029819 80.301 75.4050
148.095257 81.033 70.3795
149.168417 81.453 64.2507
150.249353 81.513 58.1359
151.338121 81.313 54.2721
152.434780 81.169 54.3949
153.539385 81.400 56.4354
154.651995 81.879 55.0260
155.772667 82.176 49.7922
156.901460 82.083 44.1909
158.038432 81.683 40.8621
159.183644 81.245 41.4506
160.337154 81.117 45.0568
161.499023 81.407 47.8420
162.669312 81.972 48.8932
163.848081 82.676 48.3290
165.035392 83.348 45.0122
166.231306 83.797 39.3456
167.435887 83.923 32.7968
168.649196 83.725 26.8748
169.871298 83.323 23.3403
171.102255 82.974 23.0101
172.342133 82.884 23.6577
173.590995 82.986 22.6472
174.848907 83.099 20.3542
176.115934 83.147 17.7074
177.392143 83.148 15.5756
178.677599 83.217 14.5336
179.972371 83.421 13.2029
181.276525 83.700 10.6752
182.590129 83.967 6.9542
183.913252 84.167 2.3000
185.245964 84.311 -2.5931
186.588332 84.471 -7.6940
187.940428 84.632 -14.5470
189.302322 84.618 -24.3086
190.674085 84.203 -36.4597
192.055788 83.209 -49.2986
193.447503 81.558 -60.1591
194.849303 79.305 -66.1704
196.261262 76.669 -64.4540
197.683452 74.251 -50.0347
199.115948 73.082 -31.7516
200.558824 73.035 -28.5903
202.012156 72.811 -37.3422
203.476019 71.693 -51.5320
204.950490 70.117 -65.6490
206.435646 70.509 94.7491
207.931564 73.321 86.2179
209.438322 76.161 74.8923
210.955998 78.205 61.3710
212.484672 79.422 47.4275
214.024424 80.012 35.6375
215.575333 80.292 27.4489
217.137481 80.612 22.4247
218.710948 81.155 17.8295
220.295818 81.777 10.1587
221.892172 82.105 -2.2671
223.500094 81.789 -18.1088
225.119668 80.602 -34.4080
226.750978 78.452 -46.7983
228.394109 75.457 -48.9564
230.049147 72.488 -26.8779
231.716178 72.189 36.7087
233.395289 74.569 56.8842
235.086567 76.923 52.7245
236.790102 78.516 43.4611
238.505980 79.564 35.9266
240.234293 80.483 31.8314
241.975130 81.474 28.1532
243.728581 82.397 21.7859
245.494739 83.008 12.4379
247.273695 83.141 1.6758
249.065542 82.808 -7.3558
250.870374 82.267 -12.1550
252.688284 81.879 -13.5568
254.519367 81.837 -14.6426
256.363720 82.023 -18.0123
258.221437 82.133 -24.8047
260.092616 81.861 -33.9152
261.977354 81.081 -41.9894
263.875750 79.995 -44.5667
265.787903 79.200 -40.0745
267.713911 79.127 -36.6788
269.653877 79.341 -41.1119
271.607900 79.283 -49.4124
273.576083 78.917 -57.0793
275.558528 78.396 -66.2954
277.555338 77.523 -81.3344
279.566619 75.926 -101.8134
281.592474 73.721 -130.4792
283.633009 72.521 149.3480
285.688331 73.977 81.7288
287.758546 76.354 57.0511
289.843763 78.385 40.3682
291.944090 79.950 26.7841
294.059638 81.105 14.0431
296.190515 81.863 1.3774
298.336833 82.191 -11.4957
300.498705 82.007 -24.1317
302.676243 81.352 -33.3107
304.869559 80.663 -35.1398
307.078770 80.670 -31.0612
309.303989 81.561 -29.5748
311.545334 82.772 -34.6949
313.802919 83.777 -45.1458
316.076865 84.368 -58.2993
318.367288 84.551 -71.9780
320.674309 84.390 -85.5537
322.998047 83.936 -98.5186
325.338624 83.322 -109.3789
327.696162 82.863 -117.3657
330.070783 82.829 -125.4727
332.462612 83.024 -138.1616
334.871773 82.983 -155.1902
337.298392 82.435 -173.2048
339.742595 81.458 172.0049
342.204510 80.599 163.8364
344.684265 80.483 157.3335
347.181989 80.781 143.9673
349.697813 80.750 126.7764
352.231868 80.292 112.6274
354.784285 79.908 104.3799
357.355198 80.111 98.5908
359.944741 80.672 87.9995
362.553049 80.931 72.2937
365.180258 80.642 57.0576
367.826505 80.010 44.5146
370.491927 79.097 30.2344
373.176665 77.534 14.5095
375.880856 75.336 13.1084
378.604644 74.384 65.1216
381.348169 76.214 85.1890
384.111575 78.740 80.2566
386.895006 80.788 68.6423
389.698607 82.207 53.8962
392.522524 83.049 37.9744
395.366904 83.361 21.3115
398.231895 83.091 3.5393
401.117648 82.090 -14.7871
404.024312 80.294 -26.9397
406.952038 78.483 -9.7090
409.900981 78.281 7.7681
412.871292 79.192 1.3547
415.863128 79.788 -13.0449
418.876643 79.455 -30.4062
421.911996 78.119 -42.9846
424.969344 76.326 -42.4595
428.048847 75.093 -37.8245
431.150666 74.977 -35.8049
434.274961 76.020 -34.6077
437.421897 77.692 -42.2544
440.591636 79.154 -62.0342
443.784345 79.917 -90.6501
447.000189 79.874 -123.7024
450.239337 79.178 -156.8318
453.501956 78.260 174.0669
456.788219 77.642 149.6946
460.098294 77.413 128.0808
463.432356 77.455 111.2444
466.790578 78.012 100.9968
470.173135 78.878 87.7317
473.580203 79.174 66.7417
477.011961 78.429 44.3386
480.468586 77.267 36.2168
483.950259 77.828 104.4688
487.457163 79.967 104.5298
490.989478 81.653 85.1299
494.547390 82.433 66.6038
498.131084 82.712 53.5173
501.740748 82.979 44.0752
505.376568 83.357 34.0657
509.038735 83.581 20.6934
512.727439 83.332 4.5706
516.442874 82.451 -12.1694
520.185232 80.965 -28.9478
523.954708 79.001 -48.7334
527.751500 77.310 -81.0298
531.575805 77.651 141.6333
535.427822 79.373 92.8315
539.307753 80.783 66.1746
543.215800 81.474 45.8169
547.152165 81.525 30.7261
551.117055 81.369 23.1597
555.110677 81.212 14.3396
559.133237 80.502 1.3738
563.184947 79.092 -3.3655
567.266018 78.237 14.8269
571.376661 79.250 31.7363
575.517092 80.884 28.5828
579.687526 82.033 18.1067
583.888181 82.710 7.8047
588.119275 83.113 -2.6951
592.381030 83.202 -15.5027
596.673667 82.770 -30.5002
600.997410 81.643 -46.1765
605.352485 79.693 -60.0750
609.739119 76.975 -67.1028
614.157540 74.263 -43.3296
618.607979 73.355 -6.6885
623.090667 74.160 -7.2146
627.605839 76.151 20.4932
632.153730 78.671 28.3420
636.734576 80.434 8.2244
641.348617 81.105 -16.6873
645.996094 80.839 -42.2590
650.677248 80.195 -68.8579
655.392323 80.058 -105.9995
660.141566 80.719 -163.5996
664.925224 81.606 136.7173
669.743546 81.954 92.5732
674.596784 81.539 64.3169
679.485191 81.029 51.5901
684.409020 81.170 44.5881
689.368530 82.132 43.3699
694.363979 83.620 39.2202
699.395626 84.747 23.7473
704.463736 85.048 4.0317
709.568570 84.304 -16.7834
714.710396 82.373 -31.7683
719.889483 79.686 -28.1157
725.106099 77.846 -4.2432
730.360516 77.862 5.2114
735.653010 78.292 0.6514
740.983855 78.758 0.2830
746.353329 79.359 -7.2212
751.761713 79.626 -23.0032
757.209288 80.335 53.3164
762.696339 81.954 60.4019
768.223151 83.292 41.1721
773.790013 83.933 25.8691
779.397214 84.133 16.2559
785.045047 84.330 12.3098
790.733808 84.850 10.3254
796.463791 85.680 7.6301
802.235296 86.729 3.5190
808.048623 87.925 -1.7422
813.904077 89.100 -10.7864
819.801961 89.935 -24.1118
825.742584 90.321 -38.9900
831.726255 90.292 -54.0513
837.753287 89.936 -68.9678
843.823992 89.196 -85.0217
849.938689 88.095 -97.2102
856.097695 87.451 -102.6189
862.301332 87.671 -117.8457
868.549922 87.903 -146.0762
874.843793 87.639 175.3550
881.183272 86.872 126.8787
887.568689 85.866 75.2209
894.000378 85.052 31.4573
900.478673 84.514 -1.9004
907.003913 84.162 -27.8149
913.576437 83.635 -54.1492
920.196588 82.283 -81.5186
926.864712 80.185 -108.3567
933.581156 78.894 -152.8853
940.346270 79.976 104.5164
947.160407 81.917 51.8318
954.023921 83.645 22.1084
960.937172 84.627 -4.1680
967.900519 84.360 -27.3203
974.914325 83.456 -36.2617
981.978956 83.188 -39.0288
989.094780 83.244 -51.9873
996.262169 82.623 -69.6660
1003.481495 81.418 -80.8838
1010.753136 81.480 -31.3252
1018.077470 83.478 -16.6025
1025.454879 85.258 -36.0840
1032.885748 85.965 -58.7324
1040.370463 85.599 -78.9976
1047.909417 84.441 -93.5527
1055.503000 83.032 -99.6772
1063.151610 82.274 -101.3164
1070.855645 82.461 -106.5513
1078.615506 82.423 -125.1060
1086.431599 81.179 -145.6558
1094.304330 79.508 -162.7471
1102.234110 78.802 156.7354
1110.221353 79.221 32.7026
1118.266475 80.127 -31.2925
1126.369895 80.927 -65.6416
1134.532035 81.606 -91.1528
1142.753322 82.098 -116.6558
1151.034184 81.651 -146.9805
1159.375052 79.887 -173.3765
1167.776361 77.897 166.4307
1176.238550 77.122 140.0190
1184.762060 76.951 109.4263
1193.347334 77.127 93.7910
1201.994821 77.735 61.4995
1210.704971 78.525 32.4766
1219.478238 79.355 3.6533
1228.315080 79.402 -28.2417
1237.215957 77.998 -51.4839
1246.181334 75.940 -52.5259
1255.211678 75.080 -56.3750
1264.307459 75.575 -70.1182
1273.469152 76.322 -110.8838
1282.697235 77.185 47.0054
1291.992188 78.591 19.6973
1301.354495 80.641 4.3237
1310.784647 82.834 -11.4053
1320.283132 84.458 -33.6440
1329.850448 85.313 -59.3848
1339.487093 85.432 -87.3735
1349.193569 84.871 -119.4043
1358.970381 83.272 -157.4526
1368.818041 80.795 168.4712
1378.737061 78.953 -64.5107
1388.727958 78.209 -105.5356
1398.791253 78.425 175.1738
1408.927471 79.543 18.9360
1419.137140 80.475 -22.8867
1429.420793 80.361 -55.2490
1439.778965 79.403 -71.8750
1450.212197 78.402 -79.8726
1460.721033 77.772 -83.6099
1471.306019 77.877 -69.2490
1481.967709 78.249 -72.8242
1492.706658 79.111 -51.7480
1503.523426 80.017 -56.1338
1514.418576 80.340 -62.8428
1525.392678 80.838 -73.3066
1536.446302 80.574 -92.3911
1547.580025 79.294 -85.1152
1558.794428 78.837 -59.4399
1570.090095 80.315 -54.9424
1581.467615 82.233 -65.1255
1592.927581 83.283 -84.0845
1604.470591 83.023 -103.2310
1616.097246 82.117 -110.4663
1627.808153 82.037 -108.9805
1639.603922 83.378 -107.9473
1651.485168 85.122 -119.2988
1663.452510 86.234 -143.0713
1675.506573 86.452 -173.4155
1687.647984 85.720 148.5972
1699.877377 84.076 98.5054
1712.195390 82.889 21.2915
1724.602663 83.476 -44.7563
1737.099845 84.214 -87.6724
1749.687587 84.036 -120.4751
1762.366544 82.976 -142.4829
1775.137379 81.876 -155.6196
1788.000756 81.352 -167.1460
1800.957346 81.186 -175.7910
1814.007826 80.660 169.3628
1827.152874 79.415 -160.6489
1840.393177 78.755 -125.1421
1853.729425 79.918 -114.4888
1867.162312 82.348 -119.6216
1880.692540 84.376 -139.4180
1894.320813 85.194 -166.1431
1908.047843 84.415 167.2842
1921.874344 82.683 165.6333
1935.801038 82.170 -168.7700
1949.828650 82.534 -179.7583
1963.957912 82.406 167.1904
1978.189561 81.778 157.9839
1992.524338 81.279 157.1753
2006.962991 81.821 157.3013
2021.506272 82.848 170.8706
2036.154940 83.157 159.4175
2050.909758 82.631 145.9341
2065.771495 82.688 139.3599
2080.740927 82.958 120.9443
2095.818833 82.163 108.3535
2111.006001 80.959 113.3960
2126.303220 80.935 -169.0186
2141.711290 82.305 -172.4702
2157.231013 83.394 166.1055
2172.863198 83.478 149.2266
2188.608660 83.653 144.3799
2204.468221 84.113 131.5347
2220.442706 83.701 115.2007
2236.532950 82.511 107.4175
2252.739789 81.923 111.5352
2269.064070 82.956 126.6528
2285.506644 84.296 120.5098
2302.068367 84.512 98.6548
2318.750104 83.707 76.8359
2335.552723 82.212 56.1631
2352.477101 80.380 47.8315
2369.524119 79.585 115.2700
2386.694668 80.841 122.5435
2403.989641 82.464 128.7666
2421.409941 83.120 114.9570
2438.956476 81.998 93.3857
2456.630160 80.277 97.6147
2474.431915 80.388 118.4062
2492.362668 81.734 112.9746
2510.423356 82.629 98.4980
2528.614918 82.624 89.0435
2546.938304 82.948 96.0288
2565.394469 84.302 90.8481
2583.984375 85.602 73.0913
2602.708991 85.961 46.9121
2621.569293 84.751 20.1323
2640.566265 81.992 8.4707
2659.700897 78.693 9.3633
2678.974186 76.693 36.6206
2698.387137 76.692 83.9302
2717.940763 78.078 109.4204
2737.636082 79.590 90.5527
2757.474121 80.115 68.1543
2777.455915 80.385 65.8311
2797.582506 80.678 103.7441
2817.854942 80.852 94.6406
2838.274281 81.020 75.1621
2858.841586 80.625 57.0435
2879.557931 80.100 47.2310
2900.424394 79.807 33.2720
2921.442065 79.298 28.2300
2942.612039 79.469 33.8750
2963.935418 80.202 1.6514
2985.413316 80.321 -102.1064
3007.046852 80.236 153.6709
3028.837153 80.353 114.8032
3050.785356 80.358 94.9360
3072.892604 79.850 78.5688
3095.160050 79.140 76.9487
3117.588856 79.706 103.7188
3140.180190 81.079 87.3931
3162.935230 81.185 56.0439
3185.855163 79.802 28.5327
3208.941182 78.047 26.0947
3232.194493 77.320 89.9648
3255.616307 77.588 117.1353
3279.207844 78.429 125.2319
3302.970336 79.247 114.5049
3326.905021 80.245 113.4844
3351.013146 81.240 103.6997
3375.295969 81.193 82.2866
3399.754755 80.309 73.2158
3424.390779 79.507 71.5718
3449.205326 78.740 64.2622
3474.199690 78.050 58.4463
3499.375173 77.247 62.5161
3524.733088 77.183 108.5068
3550.274757 78.346 107.3237
3576.001511 79.156 90.3936
3601.914692 79.054 82.7300
3628.015651 79.143 87.1938
3654.305748 79.577 79.6914
3680.786354 79.470 72.9463
3707.458849 79.047 82.3394
3734.324624 79.098 85.1377
3761.385080 79.231 73.7651
3788.641627 79.250 70.6475
3816.095686 80.228 118.7070
3843.748688 81.328 110.9888
3871.602076 81.421 93.9609
3899.657300 81.350 87.5894
3927.915825 81.553 83.2632
3956.379122 81.970 80.6411
3985.048676 82.332 70.5298
4013.925981 81.841 54.4839
4043.012544 80.473 54.2788
4072.309879 79.215 68.0811
4101.819515 78.916 77.8364
4131.542990 79.681 77.7100
4161.481854 80.420 68.6899
4191.637667 80.457 57.5308
4222.012001 80.200 57.4917
4252.606441 80.555 64.5151
4283.422580 80.650 55.5542
4314.462026 79.855 50.0029
4345.726396 79.242 59.1802
4377.217321 80.030 72.3364
4408.936442 80.814 61.5171
4440.885413 80.304 60.7104
4473.065899 79.823 77.3179
4505.479579 79.997 75.8638
4538.128141 80.274 70.9087
4571.013288 79.964 61.5903
4604.136735 79.186 56.1304
4637.500207 78.535 56.8975
4671.105446 78.866 68.4775
4704.954201 79.658 63.9419
4739.048239 79.717 57.3403
4773.389336 80.016 74.9111
4807.979283 80.306 68.5820
4842.819883 79.499 57.6758
4877.912952 78.335 59.7397
4913.260320 77.814 64.1348
4948.863830 78.085 69.5088
4984.725337 78.875 73.6270
5020.846712 79.895 75.6411
5057.229836 81.108 76.4189
5093.876609 82.205 70.8950
5130.788938 82.270 57.3809
5167.968750 81.717 62.5073
5205.417982 81.875 64.5879
5243.138586 82.032 51.9287
5281.132530 81.879 54.7656
5319.401793 82.458 66.3208
5357.948371 82.855 54.3628
5396.774274 82.540 45.7793
5435.881525 82.151 40.5332
5475.272163 81.550 32.7808
5514.948243 80.649 29.1919
5554.911831 80.278 40.2729
5595.165012 81.081 51.4731
5635.709884 81.817 41.3506
5676.548561 81.515 29.5874
5717.683172 80.981 33.8599
5759.115861 80.575 28.6143
5800.848789 79.450 24.5605
5842.884130 78.829 38.7900
5885.224077 79.568 47.2778
5927.870837 80.516 44.6631
5970.826633 81.041 37.6909
6014.093704 81.466 32.6929
6057.674306 81.425 21.6543
6101.570711 80.600 18.8867
6145.785208 80.169 26.2305
6190.320101 80.273 22.2778
6235.177712 80.289 15.8687
6280.360380 80.275 8.4937
6325.870460 79.790 -2.8965
6371.710325 78.662 -4.6475
6417.882365 77.834 10.9351
6464.388986 77.654 15.8223
6511.232613 77.616 24.0034
6558.415689 77.750 26.9868
6605.940673 77.291 18.5562
6653.810042 76.439 23.9028
6702.026292 76.189 30.2188
6750.591937 76.793 33.3145
6799.509509 78.071 32.5122
6848.781558 78.889 19.4219
6898.410653 78.318 3.1152
6948.399380 77.051 0.0176
6998.750346 76.227 13.5942
7049.466176 75.971 39.9731
7100.549514 76.013 41.2305
7152.003023 75.870 34.0098
7203.829385 75.782 41.8252
7256.031302 76.604 51.6255
7308.611496 77.709 48.8169
7361.572708 78.850 53.9087
7414.917698 79.468 46.2808
7468.649249 79.360 41.8364
7522.770160 79.488 39.8330
7577.283253 79.834 39.2544
7632.191371 80.495 39.3999
7687.497376 80.878 28.1914
7743.204151 80.400 18.4258
7799.314600 79.644 17.5371
7855.831649 79.589 26.8486
7912.758244 80.159 32.7847
7970.097352 80.176 24.5498
8027.851962 79.863 20.9961
8086.025087 79.619 17.9243
8144.619758 79.673 21.4111
8203.639030 80.037 19.1177
8263.085980 79.840 9.5972
8322.963708 79.198 5.4541
8383.275334 78.636 8.8481
8444.024002 78.789 26.8037
8505.212881 79.523 25.3696
8566.845160 79.994 15.5806
8628.924051 79.784 4.7871
8691.452792 79.134 9.0850
8754.434642 78.804 16.8555
8817.872884 78.499 13.0728
8881.770826 78.187 11.2656
8946.131799 77.994 23.0835
9010.959157 78.392 34.5371
9076.256282 79.311 33.2866
9142.026576 79.966 24.7300
9208.273470 80.098 19.3604
9275.000415 80.146 20.2056
9342.210891 80.417 19.4194
9409.908403 80.492 10.9868
9478.096478 79.871 4.8232
9546.778672 79.450 11.6367
9615.958566 79.910 17.7031
9685.639765 80.583 13.0703
9755.825904 80.639 4.3564
9826.520640 80.278 1.1943
9897.727659 80.239 2.3281
9969.450674 80.350 -3.9453
10041.693423 79.952 -11.3960
10114.459673 79.593 -10.7314
10187.753217 79.711 -7.3237
10261.577877 79.473 -12.3848
10335.937500 78.591 -13.8521
10410.835964 78.207 -3.8438
10486.277173 78.962 1.9102
10562.265060 79.828 -4.9902
10638.803587 79.971 -15.6987
10715.896743 79.495 -21.1821
10793.548548 79.017 -25.0537
10871.763050 78.426 -31.7002
10950.544327 77.441 -27.1841
11029.896485 77.056 -13.3857
11109.823662 77.288 -11.7944
11190.330024 77.146 -16.2319
11271.419768 76.955 -10.1523
11353.097122 77.363 -7.0366
11435.366344 77.460 -16.3872
11518.231722 77.076 -18.8081
11601.697577 77.230 -15.4077
11685.768261 77.223 -24.4048
11770.448155 76.391 -28.4277
11855.741674 75.760 -19.4258
11941.653265 75.631 -19.6665
12028.187408 75.170 -22.7544
12115.348612 74.903 -13.4487
12203.141422 75.083 -12.1436
12291.570415 74.535 -19.5146
12380.640201 73.359 -12.6123
12470.355424 72.602 -2.3442
12560.720760 72.456 4.7178
12651.740920 72.846 12.5967
12743.420650 73.016 14.7007
12835.764729 72.647 21.6987
12928.777972 73.279 36.9551
13022.465227 75.518 10.8120
13116.831378 77.975 -1.5825
13211.881345 79.158 -7.6211
13307.620084 79.116 -14.3218
13404.052584 78.370 -21.1133
13501.183875 77.455 -22.5732
13599.019019 77.078 -19.1899
13697.563116 76.974 -22.9463
13796.821305 76.542 -24.6250
13896.798760 76.426 -22.5117
13997.500692 76.339 -27.8960
14098.932352 75.917 -31.5664
14201.099028 75.587 -32.2461
14304.006046 75.228 -36.2559
14407.658770 74.764 -36.8623
14512.062604 74.469 -38.2319
14617.222992 73.951 -42.0435
14723.145416 73.389 -40.0938
14829.835397 72.987 -41.4956
14937.298497 72.434 -41.3965
15045.540320 72.243 -33.1118
15154.566507 72.494 -33.4009
15264.382743 72.683 -38.0034
15374.994752 72.621 -44.1387
15486.408302 72.103 -51.0107
15598.629201 71.458 -53.3193
15711.663298 70.972 -57.8960
15825.516487 70.136 -60.6680
15940.194703 69.088 -59.1270
16055.703925 68.177 -61.7358
16172.050174 67.353 -62.7866
16289.239516 66.545 -69.8208
16407.278061 65.246 -76.2607
16526.171961 64.203 -75.4136
16645.927415 63.780 -47.0669
16766.550667 63.988 37.7651
16888.048005 65.482 37.5645
17010.425762 67.140 29.8691
17133.690320 68.002 20.9121
17257.848103 68.706 20.2627
17382.905584 69.319 14.4521
17508.869284 69.787 12.5527
17635.745768 69.928 6.6274
17763.541652 69.889 2.9219
17892.263597 69.850 0.2734
18021.918315 69.463 -1.3740
18152.512564 68.937 -1.0342
18284.053153 68.606 1.2188
18416.546939 68.737 5.9883
18550.000830 69.257 5.9316
18684.421783 69.778 1.9629
18819.816805 69.909 -5.0103
18956.192956 69.650 -11.6758
19093.557344 69.087 -17.9468
19231.917131 68.302 -21.9229
19371.279531 67.556 -25.0703
19511.651807 66.808 -29.2524
19653.041280 65.864 -33.0894
19795.455318 64.724 -35.5283
19938.901348 63.839 -37.4712
