* Measurement data measured by REW V5.31.1
* Source: Scarlett 2i4 USB, MICROPHONE, R, volume: no control
* Format: 512k Log Swept Sine, 1 sweep at -18.0 dBFS with no timing reference
* Dated: May 16, 2024 7:49:08 AM
* REW Settings:
*  C-weighting compensation: Off
*  Target level: 75.0 dB
* Note: ; 
* Measurement: bns-back12-side12-p1-r
* Smoothing: 1/48 octave
* Frequency Step: 96 ppo
* Start Frequency: 10.093689 Hz
*
* Freq(Hz) SPL(dB) Phase(degrees)
10.093689 46.129 71.4093
10.166832 45.695 68.2153
10.240505 45.160 64.9493
10.314712 44.602 61.7467
10.389457 44.009 58.8755
10.464743 43.255 56.7270
10.540575 42.207 55.2757
10.616956 40.994 54.6211
10.693891 39.767 55.1279
10.771383 38.649 57.4164
10.849437 37.593 63.0461
10.928057 36.599 73.4451
11.007246 35.862 87.8770
11.087009 35.658 102.1853
11.167350 36.222 112.7361
11.248273 37.448 119.6380
11.329783 38.923 123.1730
11.411883 40.252 124.2461
11.494578 41.243 123.3883
11.577873 42.034 120.9978
11.661771 42.675 117.8559
11.746277 43.178 114.4327
11.831395 43.541 110.6467
11.917130 43.757 105.8555
12.003487 43.835 100.5919
12.090469 43.786 95.3751
12.178081 43.616 90.0738
12.266329 43.318 83.7207
12.355216 42.884 76.7232
12.444747 42.302 69.7105
12.534926 41.539 62.2082
12.625760 40.610 52.9309
12.717251 39.608 42.0195
12.809406 38.606 30.1222
12.902228 37.533 14.9332
12.995723 36.517 -5.8319
13.089895 35.871 -30.3763
13.184750 35.892 -54.6533
13.280292 36.522 -78.7019
13.376526 37.414 -98.2900
13.473458 38.263 -112.6556
13.571093 39.048 -125.5590
13.669434 39.788 -137.6649
13.768489 40.395 -148.1415
13.868261 40.800 -157.7283
13.968756 41.032 -168.2658
14.069979 41.135 -178.8506
14.171936 41.136 171.0707
14.274632 41.012 159.5259
14.378072 40.840 146.6845
14.482261 40.727 133.6357
14.587206 40.684 119.1549
14.692910 40.737 103.1126
14.799381 40.970 87.4721
14.906624 41.442 72.4899
15.014643 42.096 58.0403
15.123446 42.829 45.5597
15.233036 43.594 34.9722
15.343421 44.393 25.4195
15.454606 45.169 17.3375
15.566596 45.880 10.6262
15.679398 46.542 4.6324
15.793018 47.160 -0.5031
15.907460 47.735 -4.7716
16.022732 48.270 -8.5054
16.138840 48.783 -11.7532
16.255788 49.282 -14.5197
16.373585 49.764 -16.9340
16.492234 50.236 -19.1443
16.611744 50.701 -21.1758
16.732119 51.153 -23.0574
16.853367 51.586 -24.8846
16.975494 51.999 -26.6932
17.098505 52.386 -28.4332
17.222408 52.742 -30.0874
17.347209 53.065 -31.7152
17.472914 53.359 -33.1974
17.599530 53.626 -34.4816
17.727063 53.870 -35.6233
17.855521 54.109 -36.5380
17.984909 54.346 -37.1927
18.115235 54.594 -37.6853
18.246506 54.872 -38.0672
18.378727 55.180 -38.3060
18.511907 55.519 -38.6552
18.646052 55.894 -39.1243
18.781169 56.289 -39.7528
18.917265 56.689 -40.7208
19.054347 57.088 -41.9478
19.192423 57.464 -43.4078
19.331499 57.807 -45.1578
19.471583 58.111 -47.0471
19.612682 58.364 -48.9679
19.754804 58.568 -50.9678
19.897956 58.729 -52.7734
20.042144 58.847 -54.4393
20.187378 58.942 -55.8597
20.333664 59.027 -56.9233
20.481010 59.118 -57.7271
20.629424 59.240 -58.2825
20.778913 59.397 -58.6177
20.929486 59.599 -59.0114
21.081150 59.844 -59.4196
21.233912 60.110 -60.0585
21.387782 60.387 -60.9728
21.542767 60.648 -62.0665
21.698874 60.874 -63.4055
21.856113 61.057 -64.7692
22.014492 61.184 -66.0239
22.174018 61.267 -67.0868
22.334700 61.322 -67.6401
22.496546 61.375 -67.7471
22.659566 61.475 -67.2535
22.823766 61.647 -66.2879
22.989157 61.936 -65.2053
23.155745 62.340 -64.1127
23.323542 62.835 -63.6118
23.492554 63.395 -63.6219
23.662790 63.955 -64.4049
23.834261 64.492 -65.7631
24.006973 64.964 -67.5154
24.180938 65.367 -69.5334
24.356163 65.699 -71.4052
24.532658 65.980 -73.1162
24.710431 66.249 -74.2900
24.889493 66.547 -75.0914
25.069853 66.930 -75.4493
25.251519 67.420 -75.8550
25.434502 68.033 -76.4908
25.618811 68.727 -77.9316
25.804456 69.466 -80.2109
25.991445 70.181 -83.5102
26.179790 70.833 -87.6849
26.369500 71.375 -92.5370
26.560584 71.787 -97.8932
26.753053 72.047 -103.4543
26.946917 72.149 -108.8945
27.142185 72.091 -114.0533
27.338869 71.893 -118.3038
27.536977 71.586 -121.5150
27.736522 71.262 -123.0473
27.937512 71.032 -123.0112
28.139959 71.043 -121.4377
28.343872 71.365 -119.7589
28.549264 71.988 -118.6379
28.756143 72.763 -119.4092
28.964522 73.569 -121.8003
29.174411 74.288 -125.8578
29.385821 74.853 -130.8978
29.598763 75.235 -136.6984
29.813248 75.417 -142.7668
30.029287 75.400 -148.6163
30.246891 75.190 -154.1340
30.466073 74.812 -158.5879
30.686842 74.318 -161.8097
30.909212 73.775 -163.3174
31.133193 73.317 -163.0607
31.358797 73.052 -161.4643
31.586035 73.054 -159.1644
31.814921 73.301 -157.4526
32.045465 73.694 -156.7357
32.277680 74.140 -157.1748
32.511577 74.553 -158.5219
32.747169 74.911 -160.3738
32.984469 75.213 -162.5044
33.223488 75.477 -164.6656
33.464239 75.729 -166.8243
33.706735 75.983 -169.0296
33.950987 76.245 -171.3497
34.197010 76.507 -173.8945
34.444816 76.758 -176.6646
34.694417 76.989 -179.6357
34.945827 77.193 177.2470
35.199059 77.376 174.0659
35.454126 77.545 170.8278
35.711041 77.706 167.5121
35.969818 77.860 164.0656
36.230470 77.998 160.4126
36.493011 78.104 156.5529
36.757455 78.160 152.5419
37.023814 78.151 148.4799
37.292104 78.074 144.5590
37.562338 77.939 141.0090
37.834530 77.774 137.9640
38.108695 77.618 135.4770
38.384846 77.511 133.4865
38.662999 77.484 131.7718
38.943167 77.545 130.0078
39.225365 77.678 127.9681
39.509608 77.862 125.5429
39.795911 78.081 122.6986
40.084289 78.331 119.4247
40.374756 78.615 115.6664
40.667328 78.937 111.2628
40.962020 79.284 105.9857
41.258848 79.627 99.6540
41.557827 79.926 92.1852
41.858972 80.143 83.6005
42.162299 80.242 74.0004
42.467824 80.200 63.5403
42.775564 80.007 52.4078
43.085533 79.664 40.8046
43.397749 79.188 28.9269
43.712227 78.608 16.9427
44.028983 77.967 4.9538
44.348036 77.315 -7.0081
44.669400 76.706 -18.9649
44.993093 76.179 -30.9470
45.319131 75.753 -42.9243
45.647532 75.428 -54.7420
45.978313 75.190 -66.1117
46.311491 75.035 -76.6677
46.647083 74.976 -86.0792
46.985107 75.040 -94.1795
47.325581 75.254 -101.0521
47.668521 75.620 -106.9936
48.013947 76.109 -112.3414
48.361876 76.676 -117.2885
48.712326 77.290 -121.8339
49.065315 77.949 -125.8862
49.420863 78.677 -129.4216
49.778987 79.505 -132.5872
50.139706 80.448 -135.6831
50.503039 81.501 -139.0573
50.869005 82.645 -143.0294
51.237623 83.849 -147.8800
51.608912 85.072 -153.8562
51.982891 86.263 -161.1421
52.359580 87.363 -169.7982
52.739000 88.313 -179.7310
53.121168 89.063 169.2949
53.506106 89.576 157.6174
53.893833 89.831 145.6035
54.284370 89.820 133.6698
54.677737 89.552 122.2805
55.073955 89.058 111.8951
55.473043 88.394 102.8901
55.875024 87.637 95.4353
56.279917 86.867 89.4174
56.687745 86.139 84.4519
57.098527 85.459 80.1138
57.512287 84.803 76.2317
57.929045 84.156 72.9280
58.348822 83.532 70.3926
58.771642 82.978 68.6013
59.197525 82.528 67.2130
59.626495 82.184 65.7861
60.058573 81.909 64.0552
60.493782 81.663 61.9969
60.932145 81.420 59.7349
61.373685 81.172 57.3926
61.818424 80.923 55.0498
62.266386 80.681 52.7223
62.717593 80.457 50.3503
63.172071 80.250 47.8123
63.629842 80.045 45.0162
64.090930 79.822 42.0076
64.555359 79.575 38.9742
65.023154 79.323 36.0804
65.494339 79.100 33.2583
65.968938 78.920 30.1509
66.446976 78.759 26.3818
66.928478 78.556 21.8392
67.413469 78.259 16.7424
67.901975 77.852 11.4255
68.394021 77.348 6.1062
68.889632 76.765 0.6791
69.388835 76.091 -5.1658
69.891655 75.261 -11.6089
70.398118 74.170 -18.2015
70.908252 72.738 -23.5045
71.422083 71.070 -24.1797
71.939636 69.807 -16.2341
72.460941 69.968 -5.3768
72.986023 71.286 -4.1177
73.514909 72.694 -12.5415
74.047629 73.755 -25.7635
74.584208 74.496 -40.6272
75.124676 75.119 -55.3253
75.669061 75.839 -69.3291
76.217390 76.760 -82.9265
76.769692 77.846 -96.5848
77.325997 79.000 -110.4623
77.886333 80.140 -124.5116
78.450730 81.200 -138.7258
79.019216 82.113 -153.1633
79.591822 82.809 -167.7079
80.168577 83.240 177.9587
80.749512 83.391 164.2557
81.334656 83.277 151.6471
81.924040 82.929 140.4282
82.517696 82.375 130.7419
83.115653 81.624 122.7979
83.717943 80.690 117.1757
84.324598 79.659 115.0894
84.935649 78.811 118.0702
85.551128 78.629 125.8226
86.171066 79.364 133.6763
86.795497 80.663 136.9485
87.424453 82.039 135.5272
88.057967 83.268 131.2979
88.696071 84.321 125.6598
89.338800 85.224 119.0656
89.986185 85.971 111.4047
90.638262 86.514 102.5991
91.295065 86.794 92.9058
91.956626 86.764 82.8525
92.622982 86.398 73.1384
93.294166 85.698 64.6840
93.970214 84.725 58.6848
94.651161 83.646 56.2909
95.337042 82.738 57.6759
96.027894 82.288 61.3696
96.723752 82.411 65.0864
97.424652 82.999 66.8181
98.130631 83.799 65.3278
98.841726 84.549 60.5181
99.557974 85.061 53.2117
100.279412 85.242 44.6558
101.006078 85.089 36.1902
101.738010 84.684 28.9053
102.475245 84.162 23.1261
103.217823 83.633 18.3058
103.965782 83.124 13.7892
104.719161 82.620 9.4728
105.477999 82.132 5.5618
106.242336 81.706 1.9816
107.012212 81.380 -1.9213
107.787666 81.122 -6.9760
108.568740 80.845 -13.5387
109.355474 80.466 -21.4532
110.147909 79.938 -30.4288
110.946086 79.253 -40.2040
111.750047 78.445 -50.7346
112.559834 77.571 -62.4666
113.375489 76.683 -76.1846
114.197055 75.829 -92.5752
115.024574 75.076 -111.8376
115.858089 74.519 -133.1345
116.697645 74.244 -154.4130
117.543284 74.268 -173.3776
118.395051 74.525 171.1338
119.252990 74.910 159.1375
120.117147 75.358 150.2209
120.987565 75.872 144.0271
121.864291 76.509 139.9753
122.747370 77.299 136.9761
123.636848 78.206 134.0226
124.532771 79.173 130.7056
125.435187 80.154 126.8364
126.344142 81.109 122.3630
127.259684 82.028 117.4725
128.181860 82.906 112.0366
129.110718 83.700 105.6115
130.046308 84.349 98.2301
130.988677 84.817 90.2451
131.937875 85.082 81.9156
132.893951 85.130 73.5760
133.856956 84.955 65.5792
134.826938 84.549 58.2590
135.803950 83.926 52.4456
136.788041 83.184 49.2422
137.779264 82.508 48.7264
138.777669 82.053 49.6956
139.783309 81.843 50.6448
140.796237 81.779 50.7240
141.816504 81.756 50.3241
142.844165 81.746 50.0371
143.879273 81.758 49.8759
144.921881 81.809 49.9600
145.972045 81.963 50.8920
147.029819 82.317 52.3948
148.095257 82.860 52.7302
149.168417 83.474 51.3783
150.249353 84.117 49.3394
151.338121 84.822 46.7108
152.434780 85.572 42.6067
153.539385 86.266 36.3323
154.651995 86.775 27.8937
155.772667 86.996 17.8914
156.901460 86.880 7.2344
158.038432 86.428 -3.3566
159.183644 85.644 -13.7043
160.337154 84.487 -23.6290
161.499023 82.887 -32.3054
162.669312 80.789 -37.7771
163.848081 78.305 -34.9331
165.035392 76.171 -14.7061
166.231306 75.662 8.8506
167.435887 76.452 16.7010
168.649196 77.371 16.9978
169.871298 78.087 15.9189
171.102255 78.680 14.5209
172.342133 79.131 10.8519
173.590995 79.292 5.0272
174.848907 79.154 -0.4298
176.115934 78.793 -6.2499
177.392143 78.050 -14.2076
178.677599 76.678 -21.6842
179.972371 74.634 -23.9813
181.276525 72.358 -14.0900
182.590129 71.550 22.3992
183.913252 73.505 59.0708
185.245964 76.333 66.4431
186.588332 78.749 61.7866
187.940428 80.541 52.5923
189.302322 81.722 41.2251
190.674085 82.346 29.3278
192.055788 82.522 18.3684
193.447503 82.385 8.6422
194.849303 81.981 -0.8348
196.261262 81.253 -10.1659
197.683452 80.179 -17.8671
199.115948 78.870 -23.1577
200.558824 77.431 -28.6338
202.012156 75.736 -37.5571
203.476019 73.754 -47.0105
204.950490 72.770 39.7743
206.435646 73.993 73.3519
207.931564 75.660 61.7830
209.438322 76.813 52.8000
210.955998 77.710 49.4241
212.484672 78.613 47.7876
214.024424 79.369 43.4630
215.575333 79.773 37.8429
217.137481 79.936 34.8179
218.710948 80.276 36.4625
220.295818 81.110 39.3479
221.892172 82.240 38.0918
223.500094 83.269 32.2273
225.119668 83.960 23.4277
226.750978 84.202 12.9877
228.394109 83.923 2.0352
230.049147 83.075 -7.6602
231.716178 81.701 -13.4176
233.395289 80.061 -11.5374
235.086567 78.857 0.3398
236.790102 78.969 16.4644
238.505980 80.335 27.3853
240.234293 82.110 29.9968
241.975130 83.659 25.4513
243.728581 84.685 16.5034
245.494739 85.145 6.6829
247.273695 85.215 -0.8422
249.065542 85.210 -5.2783
250.870374 85.364 -8.5190
252.688284 85.674 -12.9126
254.519367 85.965 -19.5994
256.363720 86.032 -28.3890
258.221437 85.719 -38.2703
260.092616 84.951 -47.4921
261.977354 83.775 -53.5774
263.875750 82.414 -54.9026
265.787903 81.187 -52.2612
267.713911 80.345 -47.6487
269.653877 79.959 -43.1361
271.607900 80.036 -38.2246
273.576083 80.674 -32.4293
275.558528 81.776 -29.9204
277.555338 82.964 -33.0773
279.566619 83.920 -40.7458
281.592474 84.469 -51.4694
283.633009 84.514 -63.8988
285.688331 84.007 -76.5596
287.758546 82.938 -87.7041
289.843763 81.365 -95.3047
291.944090 79.447 -97.5103
294.059638 77.575 -91.5884
296.190515 76.652 -74.6519
298.336833 77.328 -59.6106
300.498705 78.790 -56.8105
302.676243 80.168 -61.2357
304.869559 81.184 -69.1892
307.078770 81.782 -79.0662
309.303989 82.032 -88.6694
311.545334 82.136 -96.7573
313.802919 82.255 -104.5127
316.076865 82.378 -113.5195
318.367288 82.415 -123.6240
320.674309 82.340 -134.1216
322.998047 82.148 -145.1738
325.338624 81.766 -157.2686
327.696162 81.098 -169.2253
330.070783 80.215 -178.3105
332.462612 79.430 176.6018
334.871773 79.015 172.3455
337.298392 78.821 165.3689
339.742595 78.591 158.0181
342.204510 78.586 155.9749
344.684265 79.341 157.5481
347.181989 80.660 153.6934
349.697813 81.947 143.9336
352.231868 82.958 131.9375
354.784285 83.707 119.5649
357.355198 84.240 107.0791
359.944741 84.565 94.6514
362.553049 84.711 82.9385
365.180258 84.768 72.5193
367.826505 84.874 63.3396
370.491927 85.128 54.4263
373.176665 85.459 43.7026
375.880856 85.622 29.9116
378.604644 85.350 13.7668
381.348169 84.459 -2.7534
384.111575 82.875 -17.0073
386.895006 80.651 -25.1011
389.698607 78.185 -20.2251
392.522524 76.521 -4.5190
395.366904 76.331 3.5125
398.231895 76.981 4.9722
401.117648 77.899 3.6907
404.024312 78.689 -3.3823
406.952038 78.981 -15.2385
409.900981 78.773 -26.2681
412.871292 78.410 -35.1479
415.863128 78.009 -47.4431
418.876643 77.174 -65.3044
421.911996 75.459 -84.1663
424.969344 72.820 -95.1204
428.048847 70.214 -91.3992
431.150666 69.922 -91.9485
434.274961 71.673 -120.0410
437.421897 73.347 -166.1379
440.591636 74.315 148.9663
443.784345 74.550 113.6687
447.000189 74.207 89.7725
450.239337 73.738 77.5337
453.501956 73.584 71.5615
456.788219 73.743 66.9521
460.098294 74.088 63.7432
463.432356 74.524 60.2393
466.790578 74.799 54.1870
470.173135 74.699 47.9341
473.580203 74.258 44.2012
477.011961 73.709 43.5654
480.468586 73.743 53.9111
483.950259 75.071 70.4326
487.457163 76.861 70.3691
490.989478 78.242 61.9790
494.547390 79.112 52.2749
498.131084 79.498 41.4993
501.740748 79.288 29.3960
505.376568 78.367 18.6479
509.038735 76.986 17.0142
512.727439 76.310 33.6577
516.442874 77.117 44.3743
520.185232 78.189 38.2073
523.954708 78.537 25.3252
527.751500 77.933 10.9287
531.575805 76.589 0.9023
535.427822 75.963 41.4670
539.307753 77.385 78.1650
543.215800 79.047 67.1848
547.152165 79.925 54.3159
551.117055 80.596 51.2976
555.110677 81.907 56.0574
559.133237 83.464 50.8020
563.184947 84.643 39.5691
567.266018 85.358 26.7876
571.376661 85.411 11.0208
575.517092 84.599 -3.2197
579.687526 83.241 -8.0496
583.888181 82.280 -3.7031
588.119275 82.327 -0.7749
592.381030 82.750 -6.7856
596.673667 82.677 -18.6411
600.997410 81.819 -29.6335
605.352485 80.503 -31.8484
609.739119 79.702 -22.7041
614.157540 79.679 -23.4988
618.607979 79.420 -33.1692
623.090667 78.511 -41.2834
627.605839 77.266 -44.1606
632.153730 76.559 -36.3225
636.734576 76.889 -34.0881
641.348617 76.928 -51.3022
645.996094 75.727 -70.5234
650.677248 74.386 -78.0203
655.392323 74.939 -109.6733
660.141566 76.600 179.2346
664.925224 78.173 125.0103
669.743546 79.287 91.4355
674.596784 79.776 67.9680
679.485191 79.622 51.6743
684.409020 79.136 44.0886
689.368530 79.177 47.6270
694.363979 80.489 55.6519
699.395626 82.434 55.2720
704.463736 83.945 43.9749
709.568570 84.491 27.4407
714.710396 83.971 11.8921
719.889483 82.616 4.8804
725.106099 81.313 11.6814
730.360516 81.142 22.7051
735.653010 81.911 26.3350
740.983855 82.914 26.3113
746.353329 83.921 24.3145
751.761713 84.804 19.7852
757.209288 85.732 17.2200
762.696339 86.717 11.6968
768.223151 87.266 0.1692
773.790013 87.109 -11.8201
779.397214 86.413 -20.1038
785.045047 85.657 -21.5874
790.733808 85.564 -16.5415
796.463791 85.994 -19.2388
802.235296 85.987 -29.0789
808.048623 85.376 -35.3357
813.904077 84.975 -31.6851
819.801961 85.841 -20.7585
825.742584 87.425 -22.6946
831.726255 88.559 -35.8589
837.753287 89.008 -51.0820
843.823992 88.856 -67.4543
849.938689 87.956 -84.3420
856.097695 86.365 -95.5786
862.301332 84.545 -104.4116
868.549922 82.441 -116.7461
874.843793 79.570 -122.1985
881.183272 76.160 -102.6597
887.568689 73.618 -80.6929
894.000378 73.639 -41.6829
900.478673 75.697 -20.5461
907.003913 77.775 -24.6477
913.576437 79.481 -30.1736
920.196588 80.876 -37.8738
926.864712 81.305 -55.6663
933.581156 80.189 -72.5891
940.346270 78.045 -69.9512
947.160407 76.842 -43.5095
954.023921 77.325 -34.2310
960.937172 77.647 -42.0054
967.900519 77.670 -38.1707
974.914325 78.702 -22.1560
981.978956 80.271 -22.3250
989.094780 81.292 -30.9028
996.262169 81.968 -33.7808
1003.481495 82.842 -36.2581
1010.753136 83.872 -40.3611
1018.077470 85.189 -43.7559
1025.454879 86.225 -56.9055
1032.885748 86.298 -75.0474
1040.370463 85.358 -89.9958
1047.909417 83.931 -94.7463
1055.503000 83.185 -89.0996
1063.151610 83.554 -89.8022
1070.855645 83.888 -101.5920
1078.615506 83.449 -114.9719
1086.431599 82.653 -121.4153
1094.304330 82.379 -125.8308
1102.234110 82.422 -140.2808
1110.221353 81.861 -163.7747
1118.266475 80.475 167.3308
1126.369895 78.887 121.5415
1134.532035 77.979 28.9106
1142.753322 78.271 -33.0017
1151.034184 79.243 -65.5085
1159.375052 79.766 -94.1790
1167.776361 79.231 -120.1267
1176.238550 77.985 -145.3230
1184.762060 76.463 -171.6570
1193.347334 76.120 -96.2004
1201.994821 76.673 -90.2529
1210.704971 76.343 -132.4292
1219.478238 75.974 171.6792
1228.315080 76.772 78.8669
1237.215957 78.163 16.4563
1246.181334 79.327 -23.2043
1255.211678 79.810 -55.8740
1264.307459 79.428 -86.1301
1273.469152 77.995 -114.4888
1282.697235 75.864 -126.8169
1291.992188 75.252 -116.7932
1301.354495 76.968 -175.4434
1310.784647 78.879 47.6101
1320.283132 79.877 -2.6074
1329.850448 79.897 -34.7920
1339.487093 79.634 -52.4824
1349.193569 80.099 -60.9951
1358.970381 81.579 -67.4023
1368.818041 83.230 -83.9521
1378.737061 84.019 -111.0645
1388.727958 83.612 -142.5942
1398.791253 82.114 -177.1973
1408.927471 79.653 140.9238
1419.137140 76.890 30.4478
1429.420793 75.194 -64.2417
1439.778965 74.465 -96.8911
1450.212197 73.862 -117.3491
1460.721033 73.579 -126.2939
1471.306019 74.010 -136.6738
1481.967709 74.023 -160.3149
1492.706658 73.617 179.2402
1503.523426 74.114 127.7373
1514.418576 74.542 52.6909
1525.392678 74.391 11.5469
1536.446302 75.627 8.4019
1547.580025 77.801 -7.2583
1558.794428 79.428 -29.6313
1570.090095 80.506 -49.8003
1581.467615 81.167 -67.7529
1592.927581 81.874 -80.1929
1604.470591 82.485 -98.3877
1616.097246 82.062 -122.2310
1627.808153 80.376 -139.1592
1639.603922 78.365 -136.4731
1651.485168 77.795 -134.8267
1663.452510 78.705 -140.2939
1675.506573 80.047 -149.8926
1687.647984 80.384 -178.5962
1699.877377 79.034 153.0537
1712.195390 77.089 144.3022
1724.602663 76.485 47.0557
1737.099845 76.417 -64.4790
1749.687587 75.884 -97.5518
1762.366544 76.351 -106.4111
1775.137379 77.395 -130.5190
1788.000756 77.329 -152.7627
1800.957346 76.387 -96.4609
1814.007826 75.746 -93.1143
1827.152874 76.170 -102.9126
1840.393177 76.093 -122.0835
1853.729425 75.115 -126.8120
1867.162312 74.940 -119.1074
1880.692540 76.456 -110.8765
1894.320813 78.682 -110.5063
1908.047843 80.278 -125.7656
1921.874344 80.969 -143.0381
1935.801038 81.090 -158.1230
1949.828650 80.708 -172.9849
1963.957912 79.988 179.8706
1978.189561 79.531 178.5913
1992.524338 79.803 -171.9922
2006.962991 80.209 175.1919
2021.506272 80.144 166.2412
2036.154940 80.231 160.6431
2050.909758 80.004 153.4727
2065.771495 79.394 159.8672
2080.740927 78.034 145.9873
2095.818833 76.075 179.6914
2111.006001 76.308 -132.7144
2126.303220 78.026 -142.7305
2141.711290 79.367 -145.9482
2157.231013 80.810 -146.2471
2172.863198 82.395 -154.5708
2188.608660 83.787 -169.1030
2204.468221 84.298 170.9219
2220.442706 83.939 156.4565
2236.532950 83.801 160.2715
2252.739789 84.395 156.3530
2269.064070 84.802 141.5103
2285.506644 84.322 128.6494
2302.068367 83.281 121.8853
2318.750104 82.112 113.2466
2335.552723 80.880 103.9873
2352.477101 79.519 93.5127
2369.524119 78.449 89.5112
2386.694668 79.323 167.4453
2403.989641 81.478 164.5747
2421.409941 82.743 142.2217
2438.956476 82.440 121.4697
2456.630160 81.118 111.8906
2474.431915 80.377 121.6733
2492.362668 81.665 141.6924
2510.423356 83.457 135.7305
2528.614918 84.457 119.5063
2546.938304 84.670 103.2808
2565.394469 84.229 87.4170
2583.984375 83.006 73.9468
2602.708991 81.091 69.3638
2621.569293 79.282 76.7861
2640.566265 78.842 97.7515
2659.700897 79.136 95.7920
2678.974186 78.938 87.9497
2698.387137 78.871 92.5967
2717.940763 80.016 126.8965
2737.636082 81.481 121.1504
2757.474121 82.129 107.0210
2777.455915 82.023 93.0181
2797.582506 81.499 84.7036
2817.854942 81.886 95.7490
2838.274281 83.363 102.9102
2858.841586 84.145 84.7061
2879.557931 83.426 64.1523
2900.424394 81.484 54.4180
2921.442065 79.637 65.6958
2942.612039 79.771 95.3306
2963.935418 80.963 91.2676
2985.413316 81.241 74.6406
3007.046852 80.226 65.7168
3028.837153 79.631 88.5249
3050.785356 81.059 101.7651
3072.892604 82.505 93.0747
3095.160050 82.899 82.9614
3117.588856 82.753 75.5874
3140.180190 82.503 69.6348
3162.935230 82.385 65.7505
3185.855163 82.013 56.7256
3208.941182 81.113 52.7085
3232.194493 80.452 53.9365
3255.616307 79.881 46.6821
3279.207844 78.789 44.0566
3302.970336 78.308 67.2461
3326.905021 79.205 75.1904
3351.013146 80.035 67.8794
3375.295969 80.403 61.3296
3399.754755 80.578 57.1147
3424.390779 80.770 51.8916
3449.205326 80.475 41.4243
3474.199690 79.425 32.2808
3499.375173 77.856 32.1802
3524.733088 76.433 39.5947
3550.274757 75.595 46.5767
3576.001511 75.676 63.1538
3601.914692 76.658 73.4570
3628.015651 77.659 75.0747
3654.305748 78.739 76.4062
3680.786354 79.581 68.2896
3707.458849 79.542 54.9678
3734.324624 78.609 47.2383
3761.385080 77.939 55.3442
3788.641627 78.236 66.0967
3816.095686 78.757 67.5996
3843.748688 78.894 60.7720
3871.602076 78.922 66.1187
3899.657300 79.592 72.2090
3927.915825 80.420 66.9629
3956.379122 81.001 58.7290
3985.048676 81.273 53.8340
4013.925981 80.966 47.1431
4043.012544 79.946 39.2935
4072.309879 78.760 39.0391
4101.819515 78.346 45.5762
4131.542990 78.747 46.9209
4161.481854 79.094 40.2295
4191.637667 79.687 48.6641
4222.012001 81.147 59.4478
4252.606441 82.017 43.4551
4283.422580 81.383 23.2285
4314.462026 79.491 16.4653
4345.726396 77.401 24.2212
4377.217321 76.226 30.5186
4408.936442 75.835 29.7031
4440.885413 75.411 35.0347
4473.065899 75.408 46.6343
4505.479579 75.742 42.2095
4538.128141 75.715 35.4121
4571.013288 75.845 42.8384
4604.136735 76.438 43.9565
4637.500207 76.163 30.7837
4671.105446 75.098 27.2412
4704.954201 74.575 35.9224
4739.048239 74.767 49.7842
4773.389336 75.586 74.9551
4807.979283 76.384 66.0317
4842.819883 76.188 52.0884
4877.912952 75.731 48.7617
4913.260320 75.443 43.6719
4948.863830 74.982 46.3193
4984.725337 75.055 60.1392
5020.846712 76.347 96.9819
5057.229836 77.925 90.1997
5093.876609 78.293 67.7539
5130.788938 77.482 54.6919
5167.968750 76.736 61.8159
5205.417982 76.683 56.6978
5243.138586 76.223 45.2407
5281.132530 75.602 60.8950
5319.401793 75.797 77.7759
5357.948371 76.289 83.4648
5396.774274 77.067 87.5986
5435.881525 77.463 77.3740
5475.272163 77.426 71.7314
5514.948243 77.729 67.7837
5554.911831 78.672 71.4126
5595.165012 80.167 102.0884
5635.709884 81.067 90.3291
5676.548561 80.914 77.0942
5717.683172 80.743 72.7964
5759.115861 80.584 64.6099
5800.848789 80.017 59.0322
5842.884130 79.497 61.7744
5885.224077 79.835 68.9116
5927.870837 80.780 67.3901
5970.826633 81.455 60.0640
6014.093704 81.665 53.8623
6057.674306 81.700 48.7852
6101.570711 81.312 39.0635
6145.785208 80.455 38.1548
6190.320101 80.266 49.7178
6235.177712 80.649 48.8242
6280.360380 80.983 46.1704
6325.870460 81.130 40.3149
6371.710325 80.812 33.6802
6417.882365 80.496 36.2646
6464.388986 80.690 38.9326
6511.232613 80.721 33.7891
6558.415689 80.750 33.9468
6605.940673 81.170 31.6016
6653.810042 81.252 21.7329
6702.026292 80.556 13.4126
6750.591937 79.731 15.4414
6799.509509 79.383 16.5337
6848.781558 79.721 22.8013
6898.410653 80.591 21.5410
6948.399380 80.464 6.2256
6998.750346 79.320 7.7827
7049.466176 78.447 16.6201
7100.549514 78.003 23.4971
7152.003023 78.103 23.9141
7203.829385 78.044 15.1411
7256.031302 77.708 9.3169
7308.611496 77.569 27.7617
7361.572708 78.351 45.8838
7414.917698 80.036 52.4634
7468.649249 81.538 40.9004
7522.770160 81.679 25.0347
7577.283253 81.068 30.6382
7632.191371 80.824 35.6406
7687.497376 81.343 42.0562
7743.204151 81.534 28.0830
7799.314600 80.496 15.8159
7855.831649 79.264 18.7661
7912.758244 79.079 29.0396
7970.097352 79.883 31.6572
8027.851962 80.564 22.6777
8086.025087 80.299 15.1504
8144.619758 79.866 22.8545
8203.639030 80.252 26.4473
8263.085980 81.217 28.4961
8322.963708 81.491 15.3135
8383.275334 80.825 10.7183
8444.024002 80.467 14.2725
8505.212881 80.548 15.3779
8566.845160 80.579 10.9546
8628.924051 80.286 3.9736
8691.452792 79.782 -2.0122
8754.434642 79.599 -1.0811
8817.872884 79.974 9.3760
8881.770826 80.348 9.4023
8946.131799 80.162 5.4951
9010.959157 79.756 3.2192
9076.256282 79.409 3.7002
9142.026576 79.443 2.4219
9208.273470 79.278 -6.7881
9275.000415 78.429 -13.7188
9342.210891 77.630 -12.4087
9409.908403 77.225 -0.7397
9478.096478 76.859 -2.0605
9546.778672 76.184 -3.0278
9615.958566 75.833 11.5151
9685.639765 76.395 19.3447
9755.825904 76.838 10.4824
9826.520640 76.544 3.1943
9897.727659 76.302 14.2529
9969.450674 77.284 25.8745
10041.693423 78.203 20.2554
10114.459673 78.756 24.1504
10187.753217 79.702 34.0811
10261.577877 80.318 26.8203
10335.937500 79.994 14.9189
10410.835964 79.588 17.5938
10486.277173 80.006 22.3145
10562.265060 80.435 12.5088
10638.803587 79.949 3.6841
10715.896743 79.314 3.6479
10793.548548 79.235 2.0781
10871.763050 79.099 -5.2031
10950.544327 78.513 -7.4155
11029.896485 78.165 -2.6958
11109.823662 78.318 -1.9731
11190.330024 78.490 -5.6543
11271.419768 78.530 -7.8359
11353.097122 78.303 -9.6367
11435.366344 78.038 -11.9873
11518.231722 77.684 -18.5449
11601.697577 77.307 -18.8413
11685.768261 77.357 -15.5210
11770.448155 77.017 -22.4580
11855.741674 76.112 -23.1357
11941.653265 75.410 -13.3311
12028.187408 74.903 -15.3501
12115.348612 74.194 -18.8994
12203.141422 73.732 -6.7427
12291.570415 73.781 2.3477
12380.640201 73.922 3.2847
12470.355424 74.325 12.6763
12560.720760 75.006 12.1367
12651.740920 75.135 6.8628
12743.420650 75.209 16.4990
12835.764729 75.686 24.3643
12928.777972 76.427 23.6392
13022.465227 77.573 26.2729
13116.831378 78.900 24.5981
13211.881345 79.601 14.6440
13307.620084 79.775 10.3467
13404.052584 80.080 7.0449
13501.183875 80.256 -2.6895
13599.019019 80.087 -9.1631
13697.563116 79.823 -14.0737
13796.821305 79.150 -22.6265
13896.798760 77.962 -23.7275
13997.500692 77.129 -17.5674
14098.932352 76.929 -16.9106
14201.099028 77.106 -12.9404
14304.006046 77.559 -13.8628
14407.658770 77.806 -18.1934
14512.062604 77.970 -18.1450
14617.222992 78.216 -23.3345
14723.145416 78.172 -29.5820
14829.835397 77.986 -32.9312
14937.298497 77.743 -38.9526
15045.540320 77.309 -45.0894
15154.566507 76.869 -50.1836
15264.382743 76.263 -57.9937
15374.994752 75.361 -63.3003
15486.408302 74.494 -68.3008
15598.629201 73.327 -77.2622
15711.663298 71.638 -81.8975
15825.516487 69.773 -83.9351
15940.194703 67.914 -77.3389
16055.703925 66.884 -62.9717
16172.050174 66.453 -52.3228
16289.239516 66.583 -29.1885
16407.278061 67.158 -21.0483
16526.171961 67.869 -5.2397
16645.927415 68.403 1.8403
16766.550667 69.029 11.1006
16888.048005 69.880 6.3018
17010.425762 70.490 0.9058
17133.690320 70.934 -4.4873
17257.848103 70.902 -10.8457
17382.905584 70.669 -13.3618
17508.869284 70.462 -16.7183
17635.745768 70.404 -17.7725
17763.541652 70.447 -19.3979
17892.263597 70.316 -16.1475
18021.918315 70.299 -13.7910
18152.512564 70.582 -13.9531
18284.053153 70.950 -15.3940
18416.546939 70.906 -16.9941
18550.000830 70.701 -18.8320
18684.421783 70.530 -24.4409
18819.816805 70.298 -30.4429
18956.192956 69.947 -36.2534
19093.557344 69.383 -41.7583
19231.917131 68.432 -47.3315
19371.279531 67.221 -50.8555
19511.651807 66.100 -53.2500
19653.041280 64.954 -56.8276
19795.455318 63.419 -61.5586
19938.901348 61.721 -64.7617
