* Measurement data measured by REW V5.31.1
* Source: Scarlett 2i4 USB, MICROPHONE, R, volume: no control
* Format: 512k Log Swept Sine, 1 sweep at -18.0 dBFS with no timing reference
* Dated: May 16, 2024 6:41:47 AM
* REW Settings:
*  C-weighting compensation: Off
*  Target level: 75.0 dB
* Note: ; 
* Measurement: bns-before-p1-rl
* Smoothing: 1/48 octave
* Frequency Step: 96 ppo
* Start Frequency: 10.093689 Hz
*
* Freq(Hz) SPL(dB) Phase(degrees)
10.093689 33.408 -1.0004
10.166832 33.202 -1.6099
10.240505 32.951 -1.2012
10.314712 32.696 0.0302
10.389457 32.472 1.7917
10.464743 32.413 3.8075
10.540575 32.626 6.6161
10.616956 33.010 9.6132
10.693891 33.502 12.0059
10.771383 34.068 13.1784
10.849437 34.731 13.4680
10.928057 35.484 13.2282
11.007246 36.262 12.3193
11.087009 36.995 10.6337
11.167350 37.658 8.1293
11.248273 38.279 5.0901
11.329783 38.853 1.7474
11.411883 39.372 -1.8035
11.494578 39.827 -5.6861
11.577873 40.220 -10.0810
11.661771 40.554 -14.6669
11.746277 40.829 -19.2074
11.831395 41.045 -23.7699
11.917130 41.200 -28.7974
12.003487 41.293 -33.9797
12.090469 41.321 -38.9817
12.178081 41.283 -43.8448
12.266329 41.180 -49.1004
12.355216 41.003 -54.4432
12.444747 40.744 -59.4474
12.534926 40.404 -64.2328
12.625760 39.979 -69.2363
12.717251 39.448 -74.1369
12.809406 38.789 -78.3948
12.902228 37.996 -82.1736
12.995723 37.072 -85.5841
13.089895 36.006 -88.1923
13.184750 34.722 -89.1052
13.280292 33.177 -87.5089
13.376526 31.722 -82.6997
13.473458 30.852 -74.3811
13.571093 30.775 -61.7067
13.669434 31.285 -48.0939
13.768489 32.136 -38.7972
13.868261 33.239 -34.7135
13.968756 34.597 -33.6933
14.069979 35.938 -34.7119
14.171936 37.023 -37.2722
14.274632 37.872 -41.3227
14.378072 38.547 -45.9758
14.482261 39.080 -50.6790
14.587206 39.469 -56.1034
14.692910 39.714 -62.0376
14.799381 39.828 -67.7076
14.906624 39.815 -73.4529
15.014643 39.666 -79.7428
15.123446 39.371 -85.7621
15.233036 38.928 -91.3492
15.343421 38.327 -97.2959
15.454606 37.522 -102.9127
15.566596 36.479 -107.5091
15.679398 35.196 -111.6116
15.793018 33.637 -114.5504
15.907460 31.625 -114.3671
16.022732 29.303 -108.5653
16.138840 27.658 -94.3024
16.255788 27.654 -71.6080
16.373585 28.854 -51.7933
16.492234 30.341 -43.2291
16.611744 31.838 -42.1727
16.732119 33.279 -44.3761
16.853367 34.375 -47.8412
16.975494 35.068 -53.2207
17.098505 35.444 -59.2191
17.222408 35.556 -64.8105
17.347209 35.399 -71.4908
17.472914 34.929 -77.9798
17.599530 34.123 -83.5977
17.727063 32.943 -89.6152
17.855521 31.207 -93.8705
17.984909 28.560 -94.5218
18.115235 26.082 -85.5323
18.246506 25.879 -39.1688
18.378727 27.928 5.3166
18.511907 30.440 13.0266
18.646052 32.774 10.9066
18.781169 34.882 6.5018
18.917265 36.489 1.1494
19.054347 37.634 -5.2744
19.192423 38.474 -11.2601
19.331499 39.062 -17.5248
19.471583 39.407 -23.6657
19.612682 39.536 -28.9474
19.754804 39.448 -34.1684
19.897956 39.153 -38.1071
20.042144 38.646 -40.9729
20.187378 37.999 -42.1872
20.333664 37.232 -40.6255
20.481010 36.560 -36.0300
20.629424 36.332 -28.2867
20.778913 36.596 -18.2837
20.929486 37.392 -9.8854
21.081150 38.642 -3.8858
21.233912 39.959 -1.1244
21.387782 41.205 -0.7727
21.542767 42.320 -1.9754
21.698874 43.254 -4.4513
21.856113 44.014 -7.5722
22.014492 44.601 -11.2220
22.174018 45.011 -15.1855
22.334700 45.242 -19.1958
22.496546 45.281 -23.3343
22.659566 45.108 -27.0592
22.823766 44.701 -30.5783
22.989157 44.010 -32.9017
23.155745 43.027 -33.9153
23.323542 41.733 -31.5555
23.492554 40.370 -23.6730
23.662790 39.778 -6.9745
23.834261 40.235 15.5454
24.006973 41.783 31.2351
24.180938 43.879 38.7967
24.356163 45.701 40.6731
24.532658 47.219 39.9627
24.710431 48.398 37.9716
24.889493 49.283 35.5910
25.069853 49.929 33.5077
25.251519 50.404 32.1132
25.434502 50.780 31.9017
25.618811 51.189 32.8137
25.804456 51.723 34.9394
25.991445 52.464 37.0772
26.179790 53.410 38.8997
26.369500 54.461 39.0944
26.560584 55.539 37.9466
26.753053 56.529 35.1541
26.946917 57.383 31.3771
27.142185 58.060 26.6148
27.338869 58.541 21.6312
27.536977 58.819 16.3488
27.736522 58.896 11.5894
27.937512 58.791 7.4345
28.139959 58.537 4.5648
28.343872 58.239 3.3424
28.549264 58.002 4.1379
28.756143 58.033 6.5279
28.964522 58.401 9.4357
29.174411 59.121 11.5980
29.385821 60.013 11.7107
29.598763 60.953 9.9650
29.813248 61.800 6.3896
30.029287 62.502 1.7191
30.246891 63.031 -3.8406
30.466073 63.379 -9.7225
30.686842 63.552 -15.6408
30.909212 63.558 -21.4789
31.133193 63.414 -26.7728
31.358797 63.140 -31.4654
31.586035 62.756 -35.3526
31.814921 62.294 -38.2255
32.045465 61.787 -40.0303
32.277680 61.266 -40.6124
32.511577 60.778 -39.9704
32.747169 60.373 -38.1281
32.984469 60.101 -35.1873
33.223488 60.015 -31.4750
33.464239 60.142 -27.5404
33.706735 60.466 -23.8953
33.950987 60.943 -20.9593
34.197010 61.502 -18.9445
34.444816 62.091 -17.7537
34.694417 62.677 -17.2269
34.945827 63.247 -17.1755
35.199059 63.805 -17.4596
35.454126 64.357 -18.0668
35.711041 64.905 -19.0189
35.969818 65.444 -20.3710
36.230470 65.958 -22.1804
36.493011 66.430 -24.4046
36.757455 66.846 -26.9609
37.023814 67.198 -29.7506
37.292104 67.486 -32.6471
37.562338 67.718 -35.5393
37.834530 67.902 -38.3791
38.108695 68.046 -41.1424
38.384846 68.155 -43.8187
38.662999 68.230 -46.3959
38.943167 68.271 -48.8243
39.225365 68.283 -51.0300
39.509608 68.278 -52.9446
39.795911 68.275 -54.5363
40.084289 68.297 -55.8407
40.374756 68.360 -56.9846
40.667328 68.470 -58.1728
40.962020 68.613 -59.6016
41.258848 68.765 -61.3835
41.557827 68.897 -63.5387
41.858972 68.987 -66.0126
42.162299 69.015 -68.7043
42.467824 68.971 -71.4910
42.775564 68.850 -74.2441
43.085533 68.651 -76.8347
43.397749 68.380 -79.1386
43.712227 68.046 -81.0484
44.028983 67.663 -82.4955
44.348036 67.244 -83.4593
44.669400 66.799 -83.9455
44.993093 66.330 -83.9290
45.319131 65.840 -83.2916
45.647532 65.347 -81.8156
45.978313 64.898 -79.3004
46.311491 64.567 -75.7973
46.647083 64.415 -71.7876
46.985107 64.443 -68.0094
47.325581 64.593 -64.9783
47.668521 64.784 -62.6997
48.013947 64.973 -60.8136
48.361876 65.164 -58.9431
48.712326 65.389 -56.9667
49.065315 65.672 -55.0503
49.420863 66.006 -53.4295
49.778987 66.365 -52.1625
50.139706 66.738 -51.1004
50.503039 67.140 -50.0774
50.869005 67.604 -49.1265
51.237623 68.147 -48.5391
51.608912 68.752 -48.7069
51.982891 69.375 -49.9084
52.359580 69.964 -52.2354
52.739000 70.469 -55.6560
53.121168 70.846 -60.0828
53.506106 71.051 -65.3720
53.893833 71.035 -71.2921
54.284370 70.755 -77.4590
54.677737 70.177 -83.2798
55.073955 69.297 -87.9413
55.473043 68.164 -90.4634
55.875024 66.904 -89.9683
56.279917 65.718 -86.2599
56.687745 64.799 -80.4713
57.098527 64.203 -74.3210
57.512287 63.858 -68.5607
57.929045 63.703 -63.0427
58.348822 63.731 -57.8578
58.771642 63.907 -53.7323
59.197525 64.119 -51.3136
59.626495 64.221 -50.4574
60.058573 64.107 -50.3507
60.493782 63.740 -49.8258
60.932145 63.166 -47.7081
61.373685 62.499 -43.1304
61.818424 61.909 -35.8131
62.266386 61.572 -26.0880
62.717593 61.642 -14.5874
63.172071 62.210 -2.5971
63.629842 63.207 7.7105
64.090930 64.406 14.9393
64.555359 65.591 19.5314
65.023154 66.685 22.8679
65.494339 67.733 25.9738
65.968938 68.811 29.0057
66.446976 69.942 31.4610
66.928478 71.087 32.8567
67.413469 72.192 33.1209
67.901975 73.217 32.4502
68.394021 74.139 31.0858
68.889632 74.947 29.2992
69.388835 75.648 27.4307
69.891655 76.268 25.7699
70.398118 76.851 24.4471
70.908252 77.431 23.3731
71.422083 78.027 22.3800
71.939636 78.649 21.3569
72.460941 79.305 20.1462
72.986023 79.984 18.4455
73.514909 80.641 15.9092
74.047629 81.210 12.5077
74.584208 81.639 8.5817
75.124676 81.919 4.6805
75.669061 82.074 1.1731
76.217390 82.138 -1.8251
76.769692 82.123 -4.2686
77.325997 82.049 -5.8782
77.886333 81.983 -6.2211
78.450730 82.030 -5.3673
79.019216 82.253 -4.1899
79.591822 82.609 -3.7179
80.168577 83.000 -4.1424
80.749512 83.373 -5.0360
81.334656 83.732 -5.9971
81.924040 84.099 -7.0328
82.517696 84.474 -8.3871
83.115653 84.830 -10.2274
83.717943 85.131 -12.4589
84.324598 85.366 -14.7405
84.935649 85.559 -16.7328
85.551128 85.753 -18.3853
86.171066 85.976 -19.9758
86.795497 86.219 -21.7694
87.424453 86.473 -23.7285
88.057967 86.750 -25.7558
88.696071 87.066 -28.1018
89.338800 87.394 -31.2620
89.986185 87.667 -35.4755
90.638262 87.815 -40.5067
91.295065 87.807 -45.8658
91.956626 87.648 -51.0911
92.622982 87.370 -55.8822
93.294166 87.013 -60.1499
93.970214 86.614 -64.0217
94.651161 86.188 -67.7192
95.337042 85.729 -71.3787
96.027894 85.232 -75.0594
96.723752 84.688 -78.8861
97.424652 84.076 -83.0355
98.130631 83.361 -87.6132
98.841726 82.501 -92.6493
99.557974 81.446 -98.1188
100.279412 80.142 -103.9064
101.006078 78.537 -109.9187
101.738010 76.568 -116.2723
102.475245 74.147 -123.3657
103.217823 71.195 -132.6925
103.965782 67.889 -152.5271
104.719161 65.579 130.8972
105.477999 66.156 81.3151
106.242336 68.324 72.6171
107.012212 70.827 75.5610
107.787666 73.401 80.7781
108.568740 75.801 82.5190
109.355474 77.867 80.9877
110.147909 79.583 77.9303
110.946086 80.998 74.4187
111.750047 82.178 71.0081
112.559834 83.193 68.0052
113.375489 84.103 65.3939
114.197055 84.948 62.9935
115.024574 85.752 60.7401
115.858089 86.531 58.3933
116.697645 87.268 55.5898
117.543284 87.932 52.3616
118.395051 88.513 48.8744
119.252990 88.998 45.1114
120.117147 89.376 41.2622
120.987565 89.662 37.6811
121.864291 89.886 34.4590
122.747370 90.078 31.5430
123.636848 90.262 28.8842
124.532771 90.463 26.3341
125.435187 90.691 23.6148
126.344142 90.929 20.2015
127.259684 91.105 15.6486
128.181860 91.139 10.0562
129.110718 90.973 3.8164
130.046308 90.572 -2.8113
130.988677 89.892 -9.6899
131.937875 88.868 -16.5788
132.893951 87.410 -22.8898
133.856956 85.417 -27.0842
134.826938 82.869 -24.9645
135.803950 80.191 -5.9706
136.788041 78.867 33.3851
137.779264 79.845 59.7610
138.777669 81.913 72.9921
139.783309 84.188 81.0255
140.796237 86.354 84.0157
141.816504 88.146 81.2172
142.844165 89.385 74.6617
143.879273 90.059 67.4008
144.921881 90.302 61.7638
145.972045 90.341 58.9740
147.029819 90.425 58.7391
148.095257 90.698 59.3998
149.168417 91.123 59.1348
150.249353 91.562 57.3205
151.338121 91.881 54.0941
152.434780 91.976 49.8907
153.539385 91.812 45.9865
154.651995 91.436 43.1025
155.772667 90.876 41.0277
156.901460 90.137 40.4781
158.038432 89.314 42.9723
159.183644 88.611 48.5518
160.337154 88.248 56.5901
161.499023 88.416 66.3989
162.669312 89.115 74.8708
163.848081 90.099 79.9775
165.035392 91.103 81.9049
166.231306 91.973 81.6848
167.435887 92.668 80.4801
168.649196 93.227 79.2791
169.871298 93.763 78.8718
171.102255 94.378 78.6903
172.342133 95.053 77.2503
173.590995 95.680 74.1009
174.848907 96.154 69.4342
176.115934 96.379 63.5017
177.392143 96.293 57.3626
178.677599 95.933 52.4839
179.972371 95.415 49.5167
181.276525 94.876 48.3044
182.590129 94.417 48.1375
183.913252 94.058 47.9114
185.245964 93.721 46.8427
186.588332 93.277 44.8108
187.940428 92.589 42.3957
189.302322 91.595 41.6385
190.674085 90.446 45.6414
192.055788 89.580 55.7835
193.447503 89.442 67.7637
194.849303 89.981 76.4910
196.261262 90.804 80.9092
197.683452 91.590 81.8694
199.115948 92.195 80.9748
200.558824 92.597 79.3098
202.012156 92.814 77.4182
203.476019 92.897 75.9724
204.950490 92.933 75.3724
206.435646 92.998 75.0907
207.931564 93.122 74.6640
209.438322 93.334 74.1163
210.955998 93.648 72.7099
212.484672 93.980 69.0093
214.024424 94.168 62.5378
215.575333 94.064 53.7898
217.137481 93.549 43.1768
218.710948 92.504 31.0612
220.295818 90.791 17.9660
221.892172 88.307 4.9987
223.500094 85.369 -0.8179
225.119668 83.862 129.3533
226.750978 84.943 127.1085
228.394109 86.456 116.9006
230.049147 87.434 107.9314
231.716178 87.891 100.2539
233.395289 87.923 93.2011
235.086567 87.592 86.7621
236.790102 86.904 80.5519
238.505980 85.804 75.1494
240.234293 84.299 73.1600
241.975130 82.583 76.6672
243.728581 81.000 84.1978
245.494739 79.959 95.7378
247.273695 79.933 111.5897
249.065542 80.737 119.6070
250.870374 81.530 117.1650
252.688284 82.009 112.5854
254.519367 82.609 111.1806
256.363720 83.761 109.2773
258.221437 85.128 98.8023
260.092616 86.072 79.5257
261.977354 86.280 56.4808
263.875750 85.824 35.2422
265.787903 85.137 20.1477
267.713911 84.897 11.6625
269.653877 85.513 6.1169
271.607900 86.831 1.0881
273.576083 88.429 -5.6542
275.558528 89.842 -16.2308
277.555338 90.781 -29.0582
279.566619 91.246 -40.6364
281.592474 91.444 -49.1027
283.633009 91.576 -55.2515
285.688331 91.684 -60.8347
287.758546 91.668 -66.7395
289.843763 91.470 -71.4938
291.944090 91.222 -73.4104
294.059638 91.098 -73.8721
296.190515 91.074 -75.4164
298.336833 91.007 -77.7648
300.498705 90.868 -79.3586
302.676243 90.702 -80.7465
304.869559 90.474 -82.9609
307.078770 90.119 -85.3943
309.303989 89.612 -87.5986
311.545334 88.909 -90.1951
313.802919 87.885 -93.1311
316.076865 86.435 -94.3500
318.367288 84.757 -87.4785
320.674309 83.885 -63.7396
322.998047 84.748 -40.5680
325.338624 86.244 -37.3499
327.696162 87.157 -45.3190
330.070783 87.076 -57.0786
332.462612 85.910 -67.9191
334.871773 83.885 -69.3188
337.298392 82.417 -30.2859
339.742595 83.479 11.6315
342.204510 85.673 14.8261
344.684265 87.528 9.7096
347.181989 88.827 2.1639
349.697813 89.526 -8.1642
352.231868 89.484 -21.0234
354.784285 88.577 -33.6539
357.355198 86.815 -42.2378
359.944741 84.457 -43.9685
362.553049 82.585 -25.6915
365.180258 83.212 37.6480
367.826505 85.264 41.8588
370.491927 86.800 30.0956
373.176665 87.514 17.3024
375.880856 87.487 4.2869
378.604644 86.744 -8.1219
381.348169 85.381 -17.9171
384.111575 83.583 -25.5336
386.895006 81.499 -33.5709
389.698607 79.241 -46.8408
392.522524 77.121 -76.5934
395.366904 76.372 -146.1874
398.231895 77.841 162.5632
401.117648 79.769 136.6242
404.024312 80.804 114.1672
406.952038 80.636 94.5827
409.900981 79.478 83.4762
412.871292 78.184 87.4208
415.863128 77.715 90.4844
418.876643 77.484 76.3124
421.911996 76.905 55.0396
424.969344 77.318 28.8043
428.048847 79.521 -13.3604
431.150666 81.916 -56.9202
434.274961 83.603 -90.7563
437.421897 84.511 -116.4706
440.591636 84.708 -136.3726
443.784345 84.288 -150.9470
447.000189 83.402 -160.1965
450.239337 82.242 -164.0576
453.501956 81.106 -161.8994
456.788219 80.361 -156.1908
460.098294 80.071 -151.8977
463.432356 79.852 -152.3298
466.790578 79.270 -154.8202
470.173135 78.324 -152.8276
473.580203 77.373 -147.4385
477.011961 76.417 -146.5502
480.468586 75.019 -147.5466
483.950259 73.272 -134.0232
487.457163 72.503 -98.8478
490.989478 73.349 -81.0245
494.547390 74.659 -75.4182
498.131084 75.667 -75.7413
501.740748 76.247 -77.7390
505.376568 76.662 -77.7274
509.038735 77.070 -79.7457
512.727439 77.191 -87.6252
516.442874 76.676 -98.8114
520.185232 75.429 -109.6755
523.954708 73.585 -119.9428
527.751500 71.656 -121.9124
531.575805 71.284 -47.4951
535.427822 72.785 -44.0391
539.307753 74.432 -58.1370
543.215800 76.101 -66.0118
547.152165 78.010 -71.9302
551.117055 79.513 -86.3457
555.110677 80.209 -102.6470
559.133237 80.399 -113.5270
563.184947 80.451 -120.8879
567.266018 80.478 -125.7217
571.376661 80.791 -124.0674
575.517092 81.662 -119.7012
579.687526 82.459 -125.0669
583.888181 82.484 -134.3840
588.119275 81.786 -137.7070
592.381030 81.118 -129.5750
596.673667 81.347 -116.5730
600.997410 82.370 -109.3259
605.352485 83.505 -108.8955
609.739119 84.388 -112.2913
614.157540 84.787 -119.8096
618.607979 84.483 -130.4526
623.090667 83.243 -142.4216
627.605839 80.972 -150.6611
632.153730 78.174 -135.2469
636.734576 77.256 -57.5946
641.348617 79.154 -36.5925
645.996094 81.008 -42.0009
650.677248 81.774 -51.4589
655.392323 81.746 -55.4896
660.141566 81.413 -55.9081
664.925224 80.997 -54.8779
669.743546 80.951 -46.5927
674.596784 81.449 -44.0853
679.485191 81.612 -55.1144
684.409020 80.740 -72.1155
689.368530 78.583 -89.4592
694.363979 75.292 -97.6116
699.395626 72.717 -111.7630
704.463736 73.754 86.5295
709.568570 75.777 55.8177
714.710396 76.631 22.5889
719.889483 76.226 -12.9050
725.106099 75.521 -48.0493
730.360516 76.372 -80.0830
735.653010 78.395 -110.3574
740.983855 79.973 -138.6102
746.353329 80.431 -164.4763
751.761713 79.572 175.7595
757.209288 77.718 173.2529
762.696339 75.868 -178.5674
768.223151 74.902 -169.4491
773.790013 75.909 -127.3317
779.397214 77.965 -115.3760
785.045047 79.012 -130.0563
790.733808 78.610 -147.1833
796.463791 77.217 -159.9612
802.235296 76.468 -85.2474
808.048623 77.872 -56.4786
813.904077 79.279 -71.6157
819.801961 79.533 -85.9047
825.742584 78.984 -95.8396
831.726255 77.793 -102.4327
837.753287 76.301 -97.4739
843.823992 75.026 -96.4463
849.938689 74.183 -85.0374
856.097695 74.147 -84.6869
862.301332 73.951 -105.6628
868.549922 72.643 -131.7396
874.843793 70.440 -131.4803
881.183272 69.156 -107.9321
887.568689 69.922 -115.6998
894.000378 71.662 -126.5857
900.478673 72.944 -144.8435
907.003913 73.102 -165.8345
913.576437 72.284 -174.2767
920.196588 71.841 -134.9792
926.864712 73.022 -101.6838
933.581156 74.991 -89.6567
940.346270 76.049 -104.5930
947.160407 75.766 -113.4050
954.023921 75.820 -89.8268
960.937172 77.306 -75.4215
967.900519 78.518 -84.0825
974.914325 78.615 -94.6399
981.978956 78.049 -97.9087
989.094780 77.839 -90.0032
996.262169 78.728 -81.7828
1003.481495 79.785 -89.6730
1010.753136 80.152 -103.5006
1018.077470 80.065 -115.0782
1025.454879 79.760 -129.7434
1032.885748 79.039 -145.6549
1040.370463 78.189 -159.6963
1047.909417 77.856 -172.4366
1055.503000 78.358 168.2896
1063.151610 78.849 135.8787
1070.855645 78.840 97.9209
1078.615506 79.000 62.6064
1086.431599 79.430 29.2737
1094.304330 79.331 1.1227
1102.234110 78.724 -14.3894
1110.221353 78.164 -25.7339
1118.266475 77.501 -36.4348
1126.369895 76.844 -38.1161
1134.532035 77.171 -26.8785
1142.753322 78.284 -34.8920
1151.034184 78.988 -56.6329
1159.375052 78.761 -84.4054
1167.776361 77.673 -110.8888
1176.238550 76.546 -129.8480
1184.762060 76.257 -144.1488
1193.347334 76.124 -163.0273
1201.994821 74.994 178.8082
1210.704971 73.221 170.0898
1219.478238 72.628 -140.6888
1228.315080 73.949 -97.3282
1237.215957 74.944 -118.0487
1246.181334 74.399 -143.6304
1255.211678 73.174 -177.1132
1264.307459 73.185 35.0033
1273.469152 73.841 -10.6473
1282.697235 73.637 -35.0852
1291.992188 73.204 -50.3159
1301.354495 73.903 -82.6982
1310.784647 74.987 -158.1372
1320.283132 74.941 139.0000
1329.850448 73.490 113.2986
1339.487093 71.644 105.9097
1349.193569 69.911 92.7632
1358.970381 68.838 -91.8652
1368.818041 70.177 -104.9790
1378.737061 73.253 -94.5103
1388.727958 76.163 -93.2656
1398.791253 77.740 -107.6968
1408.927471 77.764 -127.0520
1419.137140 76.897 -79.1892
1429.420793 76.003 -36.4277
1439.778965 75.388 -39.0934
1450.212197 75.165 -39.9301
1460.721033 74.601 -55.5958
1471.306019 74.274 98.4976
1481.967709 74.804 79.5989
1492.706658 74.751 62.0863
1503.523426 74.220 44.1740
1514.418576 73.665 -11.4106
1525.392678 73.253 -111.3076
1536.446302 72.744 -136.5500
1547.580025 72.381 -127.3384
1558.794428 72.259 -115.1914
1570.090095 72.391 -91.6543
1581.467615 73.321 -62.8727
1592.927581 74.074 -56.9116
1604.470591 73.588 -60.8748
1616.097246 73.103 21.2358
1627.808153 74.263 57.5027
1639.603922 75.989 89.7722
1651.485168 76.764 90.7216
1663.452510 76.332 94.3177
1675.506573 75.396 102.1444
1687.647984 74.299 111.3905
1699.877377 74.452 -172.2075
1712.195390 75.585 -135.5117
1724.602663 75.444 -146.3711
1737.099845 74.256 -144.7632
1749.687587 74.118 -9.3596
1762.366544 75.182 -0.7249
1775.137379 75.682 -9.4984
1788.000756 74.893 -14.6129
1800.957346 73.573 -10.1041
1814.007826 73.659 132.5065
1827.152874 75.043 138.6140
1840.393177 76.589 164.5315
1853.729425 77.656 175.5978
1867.162312 77.723 -178.7583
1880.692540 77.224 -143.2213
1894.320813 76.699 -116.3497
1908.047843 76.307 -87.1670
1921.874344 77.032 -46.8057
1935.801038 78.386 -26.6409
1949.828650 78.772 -30.4878
1963.957912 77.763 -29.2289
1978.189561 76.700 75.4758
1992.524338 76.533 77.0581
2006.962991 77.483 163.7177
2021.506272 78.767 178.4338
2036.154940 78.883 167.7141
2050.909758 78.131 -141.0225
2065.771495 77.684 -95.8038
2080.740927 77.117 -95.4264
2095.818833 76.072 -75.2139
2111.006001 75.412 -45.3535
2126.303220 75.342 -33.6590
2141.711290 75.861 165.6118
2157.231013 76.317 140.5642
2172.863198 75.845 139.8916
2188.608660 74.852 168.1765
2204.468221 74.351 -148.5265
2220.442706 74.471 -113.9395
2236.532950 74.752 -81.0157
2252.739789 75.301 -47.1074
2269.064070 75.545 -25.2917
2285.506644 75.786 35.0272
2302.068367 75.811 50.3624
2318.750104 74.856 67.7653
2335.552723 74.380 151.8362
2352.477101 75.607 -170.9077
2369.524119 77.711 -124.2309
2386.694668 79.414 -98.6075
2403.989641 79.476 -93.6356
2421.409941 78.143 -68.8656
2438.956476 76.732 -42.9869
2456.630160 76.254 13.5086
2474.431915 76.624 99.0038
2492.362668 76.552 111.8589
2510.423356 76.382 165.8132
2528.614918 76.722 -160.0324
2546.938304 77.010 -133.7281
2565.394469 77.242 -100.4547
2583.984375 77.121 -78.8125
2602.708991 76.562 -30.0975
2621.569293 75.810 -10.8805
2640.566265 74.721 -15.0848
2659.700897 75.012 -77.0050
2678.974186 76.879 -116.1653
2698.387137 78.831 -112.4016
2717.940763 80.320 -89.2337
2737.636082 80.638 -84.5910
2757.474121 79.594 -53.8851
2777.455915 78.596 1.3686
2797.582506 77.860 -1.3816
2817.854942 76.970 151.1684
2838.274281 76.804 145.6520
2858.841586 77.000 -137.3110
2879.557931 76.927 -79.0709
2900.424394 76.630 -40.2628
2921.442065 76.520 -17.3995
2942.612039 76.008 -3.7935
2963.935418 75.344 25.5558
2985.413316 74.923 154.0276
3007.046852 75.294 -176.5208
3028.837153 76.037 173.4533
3050.785356 77.134 48.5117
3072.892604 78.553 32.9553
3095.160050 80.064 68.0685
3117.588856 81.047 77.7875
3140.180190 80.338 80.5603
3162.935230 78.540 90.1064
3185.855163 77.268 67.7819
3208.941182 77.469 15.6290
3232.194493 77.792 9.5962
3255.616307 77.960 34.8064
3279.207844 77.787 61.3181
3302.970336 76.895 94.4150
3326.905021 75.598 126.1756
3351.013146 75.029 123.0637
3375.295969 76.119 38.2429
3399.754755 77.500 31.8210
3424.390779 78.361 64.0591
3449.205326 78.778 89.8719
3474.199690 78.720 109.8475
3499.375173 78.804 -122.3948
3524.733088 79.284 -68.7129
3550.274757 79.647 -34.3397
3576.001511 79.078 -12.5380
3601.914692 78.037 42.6371
3628.015651 78.023 127.1743
3654.305748 78.975 -157.3108
3680.786354 79.711 -131.4546
3707.458849 80.075 -45.9141
3734.324624 80.278 -11.9535
3761.385080 79.680 6.1444
3788.641627 79.185 127.1891
3816.095686 79.077 150.5516
3843.748688 79.092 -167.9750
3871.602076 79.669 -16.6783
3899.657300 80.470 17.1741
3927.915825 80.866 46.7489
3956.379122 80.455 79.2853
3985.048676 79.552 94.1893
4013.925981 78.994 -30.0182
4043.012544 79.733 -13.4030
4072.309879 80.626 12.7708
4101.819515 80.327 33.8324
4131.542990 79.477 48.5344
4161.481854 80.030 -10.6583
4191.637667 82.015 -32.8422
4222.012001 83.199 -27.7953
4252.606441 82.627 -22.3560
4283.422580 80.655 -25.0194
4314.462026 79.399 -63.4313
4345.726396 80.320 -70.7885
4377.217321 80.893 -60.2969
4408.936442 80.300 -18.2572
4440.885413 79.032 10.1455
4473.065899 77.689 -11.9208
4505.479579 77.706 -48.4679
4538.128141 78.311 -44.9995
4571.013288 78.255 -20.7164
4604.136735 77.851 -8.5490
4637.500207 77.701 -30.4050
4671.105446 78.203 -45.8074
4704.954201 78.731 -39.0997
4739.048239 78.508 -41.8068
4773.389336 77.187 -76.5437
4807.979283 76.053 -104.6287
4842.819883 76.421 -61.7272
4877.912952 77.152 -34.6191
4913.260320 77.080 -38.6754
4948.863830 76.643 -62.1643
4984.725337 76.557 -84.8074
5020.846712 76.333 -104.4631
5057.229836 76.237 -148.0931
5093.876609 76.753 167.0862
5130.788938 77.426 148.7583
5167.968750 78.130 129.2640
5205.417982 77.931 117.5833
5243.138586 76.853 126.2854
5281.132530 75.907 -163.2942
5319.401793 75.761 -17.2947
5357.948371 76.221 23.7632
5396.774274 76.714 0.9164
5435.881525 77.567 -83.4879
5475.272163 78.400 -68.3352
5514.948243 78.684 -47.5115
5554.911831 77.941 -56.0238
5595.165012 77.357 -64.0479
5635.709884 78.157 -47.3002
5676.548561 78.538 -50.3757
5717.683172 78.210 -69.9091
5759.115861 79.014 -73.2006
5800.848789 79.848 -64.6349
5842.884130 80.064 27.0928
5885.224077 80.447 70.5093
5927.870837 80.360 20.8864
5970.826633 80.241 10.2793
6014.093704 80.392 42.2355
6057.674306 79.980 50.4955
6101.570711 79.933 26.8701
6145.785208 81.222 13.7777
6190.320101 81.624 10.3363
6235.177712 80.538 -8.0702
6280.360380 80.065 -24.6400
6325.870460 80.223 -21.1888
6371.710325 79.985 -21.3851
6417.882365 80.510 -40.9551
6464.388986 81.587 -31.3392
6511.232613 81.917 -14.4448
6558.415689 81.934 -11.8357
6605.940673 82.745 -23.8188
6653.810042 83.298 -18.3757
6702.026292 83.004 -7.1149
6750.591937 82.359 -17.7285
6799.509509 81.535 -35.3125
6848.781558 80.648 -42.5938
6898.410653 80.286 -57.2660
6948.399380 79.901 -59.8987
6998.750346 79.610 -37.8049
7049.466176 79.972 -42.4724
7100.549514 80.776 -47.8109
7152.003023 81.709 -49.8334
7203.829385 82.404 -61.1323
7256.031302 82.621 -63.7454
7308.611496 82.285 -66.4539
7361.572708 81.536 -77.4973
7414.917698 80.747 -81.8842
7468.649249 80.079 -95.9093
7522.770160 79.667 -116.2186
7577.283253 78.856 -112.1077
7632.191371 77.598 -117.1023
7687.497376 76.859 -126.7703
7743.204151 76.351 -110.1886
7799.314600 75.969 -123.1956
7855.831649 76.501 -109.0160
7912.758244 77.025 -78.4413
7970.097352 77.445 -65.0790
8027.851962 78.264 -79.4607
8086.025087 78.247 -77.6705
8144.619758 77.299 -113.6149
8203.639030 76.404 -160.3954
8263.085980 76.036 -129.8770
8322.963708 76.351 -128.7886
8383.275334 76.437 -120.3658
8444.024002 76.125 -126.6117
8505.212881 75.842 -141.9932
8566.845160 75.646 -97.3632
8628.924051 75.289 -83.8649
8691.452792 75.190 -92.0341
8754.434642 74.386 -101.6212
8817.872884 72.947 19.4946
8881.770826 72.513 30.2275
8946.131799 73.136 98.1617
9010.959157 74.279 82.6488
9076.256282 75.441 41.3027
9142.026576 75.540 -14.8422
9208.273470 74.751 -64.4171
9275.000415 74.147 -93.7057
9342.210891 74.417 -67.4263
9409.908403 74.425 -54.4988
9478.096478 73.785 -67.9974
9546.778672 73.518 133.9536
9615.958566 74.051 97.0062
9685.639765 74.703 89.5828
9755.825904 74.887 105.9844
9826.520640 74.565 103.0675
9897.727659 74.681 43.8588
9969.450674 75.058 -36.0306
10041.693423 75.414 -60.5894
10114.459673 75.890 -66.9374
10187.753217 75.921 -39.5358
10261.577877 75.585 -9.3732
10335.937500 75.855 25.4579
10410.835964 76.023 49.8011
10486.277173 75.611 64.1096
10562.265060 75.118 72.1279
10638.803587 74.521 68.0891
10715.896743 73.715 70.8572
10793.548548 72.517 59.9242
10871.763050 72.320 16.8037
10950.544327 73.591 -4.0426
11029.896485 74.574 21.1735
11109.823662 75.105 27.1805
11190.330024 75.192 24.6326
11271.419768 74.350 19.6503
11353.097122 73.196 16.4594
11435.366344 72.246 23.8352
11518.231722 72.049 28.5344
11601.697577 72.777 14.9530
11685.768261 73.579 6.8855
11770.448155 73.731 9.0862
11855.741674 73.488 20.2946
11941.653265 73.134 31.2859
12028.187408 71.936 34.0382
12115.348612 70.380 17.3070
12203.141422 69.997 1.9850
12291.570415 70.634 -0.9485
12380.640201 71.917 7.9949
12470.355424 72.885 7.3801
12560.720760 72.919 -2.8816
12651.740920 72.414 -8.0969
12743.420650 71.739 -12.1936
12835.764729 71.114 -23.9926
12928.777972 70.778 -23.6169
13022.465227 71.052 -18.2886
13116.831378 71.459 -5.1659
13211.881345 71.718 10.4998
13307.620084 71.447 31.8877
13404.052584 70.561 44.5524
13501.183875 69.311 50.4337
13599.019019 68.633 31.0890
13697.563116 69.081 -16.3569
13796.821305 69.864 -24.2983
13896.798760 70.547 1.9404
13997.500692 70.988 21.8866
14098.932352 70.834 31.8750
14201.099028 69.938 36.5970
14304.006046 68.724 46.9799
14407.658770 68.232 57.4124
14512.062604 68.476 35.6184
14617.222992 68.531 23.0029
14723.145416 68.096 27.5085
14829.835397 67.236 37.5823
14937.298497 66.142 52.6207
15045.540320 65.544 112.3939
15154.566507 65.784 120.9202
15264.382743 66.342 93.1553
15374.994752 66.794 65.7850
15486.408302 66.859 47.0220
15598.629201 65.946 39.2095
15711.663298 64.335 45.3730
15825.516487 62.840 62.2598
15940.194703 62.609 69.1176
16055.703925 63.488 68.6096
16172.050174 64.472 65.4912
16289.239516 64.643 63.5028
16407.278061 64.018 74.6874
16526.171961 63.709 136.7864
16645.927415 64.025 159.6797
16766.550667 64.491 123.2206
16888.048005 65.248 99.9291
17010.425762 66.133 92.4789
17133.690320 66.459 78.8210
17257.848103 66.093 58.5151
17382.905584 65.491 45.8948
17508.869284 64.997 43.9712
17635.745768 64.437 45.7671
17763.541652 63.324 52.0660
17892.263597 61.614 55.4104
18021.918315 60.045 41.9233
18152.512564 58.812 27.2151
18284.053153 57.639 36.8138
18416.546939 57.026 67.1572
18550.000830 57.002 92.0184
18684.421783 56.813 91.2510
18819.816805 56.177 71.5642
18956.192956 55.295 49.7483
19093.557344 54.683 45.0524
19231.917131 53.768 74.1936
19371.279531 52.209 109.4613
19511.651807 50.443 142.5710
19653.041280 48.923 102.3594
19795.455318 48.414 85.1235
19938.901348 48.607 95.9939
