* Measurement data measured by REW V5.31
* Source: Scarlett 2i4 USB, MICROPHONE, R, volume: no control. Timing signal peak level -38.2 dBFS, measurement signal peak level -30.9 dBFS
* Format: 512k Log Swept Sine, 1 sweep at -18.0 dBFS using an acoustic timing reference
* Dated: Apr 24, 2024 6:34:35 PM
* REW Settings:
*  C-weighting compensation: Off
*  Target level: 75.0 dB
* Note: ; Delay -0.0121 ms (-4.1 mm, -0.16 in) using estimated IR delay relative to Acoustic reference played from SPEAKER L with no timing offset
* Measurement: abs-fr-p1-l
* Smoothing: 1/48 octave
* Frequency Step: 96 ppo
* Start Frequency: 10.093689 Hz
*
* Freq(Hz) SPL(dB) Phase(degrees)
10.093689 18.548 16.0373
10.166832 18.513 10.2863
10.240505 18.469 3.9745
10.314712 18.423 -2.6100
10.389457 18.367 -9.2030
10.464743 18.264 -15.7466
10.540575 18.082 -23.0842
10.616956 17.854 -31.1499
10.693891 17.603 -39.5990
10.771383 17.345 -48.0833
10.849437 17.060 -57.3702
10.928057 16.755 -68.0347
11.007246 16.486 -79.5995
11.087009 16.314 -91.4195
11.167350 16.270 -103.7119
11.248273 16.335 -117.4102
11.329783 16.503 -131.4446
11.411883 16.780 -144.6952
11.494578 17.185 -157.0867
11.577873 17.725 -169.5613
11.661771 18.341 178.7188
11.746277 18.965 168.2965
11.831395 19.563 158.8777
11.917130 20.158 149.5191
12.003487 20.737 140.6791
12.090469 21.272 132.6945
12.178081 21.747 125.2834
12.266329 22.172 117.7564
12.355216 22.546 110.5021
12.444747 22.866 103.8571
12.534926 23.130 97.4699
12.625760 23.337 90.9371
12.717251 23.489 84.6198
12.809406 23.587 78.8381
12.902228 23.629 73.0843
12.995723 23.613 67.2843
13.089895 23.543 61.7655
13.184750 23.417 56.7094
13.280292 23.234 51.6513
13.376526 22.995 46.7127
13.473458 22.703 42.2130
13.571093 22.353 38.0948
13.669434 21.951 34.1955
13.768489 21.508 30.6519
13.868261 21.026 27.7185
13.968756 20.502 25.3969
14.069979 19.975 23.5984
14.171936 19.480 22.3430
14.274632 19.008 22.0337
14.378072 18.598 22.4429
14.482261 18.316 23.0746
14.587206 18.184 24.1445
14.692910 18.186 25.4879
14.799381 18.309 26.3854
14.906624 18.561 26.6797
15.014643 18.922 26.5551
15.123446 19.329 25.7268
15.233036 19.752 24.0974
15.343421 20.196 21.9072
15.454606 20.631 19.2505
15.566596 21.040 16.0997
15.679398 21.427 12.5219
15.793018 21.786 8.7431
15.907460 22.112 4.7521
16.022732 22.407 0.4962
16.138840 22.669 -3.7577
16.255788 22.897 -8.0441
16.373585 23.091 -12.4406
16.492234 23.248 -16.6530
16.611744 23.369 -20.7803
16.732119 23.451 -24.8361
16.853367 23.495 -28.5186
16.975494 23.498 -31.9738
17.098505 23.466 -35.1154
17.222408 23.405 -37.6735
17.347209 23.313 -39.7526
17.472914 23.219 -41.2439
17.599530 23.141 -41.9581
17.727063 23.092 -41.9467
17.855521 23.128 -41.3790
17.984909 23.268 -40.1332
18.115235 23.521 -38.5831
18.246506 23.905 -37.2021
18.378727 24.412 -35.8844
18.511907 24.987 -35.1553
18.646052 25.610 -35.0677
18.781169 26.249 -35.4922
18.917265 26.853 -36.5264
19.054347 27.417 -38.0537
19.192423 27.916 -39.7924
19.331499 28.340 -41.8185
19.471583 28.688 -43.8890
19.612682 28.959 -45.7446
19.754804 29.157 -47.5095
19.897956 29.305 -48.7623
20.042144 29.409 -49.5482
20.187378 29.512 -49.7839
20.333664 29.647 -49.3039
20.481010 29.843 -48.3373
20.629424 30.150 -47.0907
20.778913 30.569 -45.6619
20.929486 31.090 -44.7125
21.081150 31.703 -44.1348
21.233912 32.350 -44.3474
21.387782 33.005 -45.2838
21.542767 33.629 -46.8340
21.698874 34.192 -49.0380
21.856113 34.682 -51.5940
22.014492 35.082 -54.4451
22.174018 35.391 -57.4373
22.334700 35.607 -60.3008
22.496546 35.735 -63.0684
22.659566 35.789 -65.3399
22.823766 35.783 -67.2070
22.989157 35.754 -68.3453
23.155745 35.727 -68.8102
23.323542 35.758 -68.6091
23.492554 35.870 -67.8074
23.662790 36.099 -66.8459
23.834261 36.442 -65.8121
24.006973 36.874 -65.2231
24.180938 37.369 -65.0336
24.356163 37.877 -65.4268
24.532658 38.378 -66.2343
24.710431 38.844 -67.3384
24.889493 39.276 -68.5751
25.069853 39.675 -69.7367
25.251519 40.065 -70.7510
25.434502 40.468 -71.4763
25.618811 40.917 -72.0590
25.804456 41.435 -72.4735
25.991445 42.032 -73.1373
26.179790 42.705 -74.0558
26.369500 43.426 -75.6594
26.560584 44.171 -77.8579
26.753053 44.901 -80.8396
26.946917 45.590 -84.4306
27.142185 46.217 -88.6487
27.338869 46.764 -93.2642
27.536977 47.222 -98.2766
27.736522 47.586 -103.4435
27.937512 47.856 -108.7219
28.139959 48.033 -114.0070
28.343872 48.122 -119.1243
28.549264 48.130 -124.1067
28.756143 48.067 -128.7556
28.964522 47.942 -133.1102
29.174411 47.767 -137.0948
29.385821 47.553 -140.7031
29.598763 47.304 -143.9379
29.813248 47.029 -146.7955
30.029287 46.726 -149.2659
30.246891 46.398 -151.3129
30.466073 46.047 -152.8513
30.686842 45.683 -153.7721
30.909212 45.326 -153.9459
31.133193 45.017 -153.2794
31.358797 44.805 -151.8441
31.586035 44.734 -149.7807
31.814921 44.840 -147.5996
32.045465 45.106 -145.7479
32.277680 45.499 -144.5527
32.511577 45.953 -144.2562
32.747169 46.416 -144.7538
32.984469 46.854 -145.9022
33.223488 47.245 -147.4924
33.464239 47.588 -149.2736
33.706735 47.895 -151.1263
33.950987 48.180 -152.9473
34.197010 48.467 -154.7194
34.444816 48.767 -156.5405
34.694417 49.085 -158.5062
34.945827 49.415 -160.7418
35.199059 49.740 -163.3683
35.454126 50.037 -166.3912
35.711041 50.285 -169.7805
35.969818 50.465 -173.4754
36.230470 50.562 -177.3135
36.493011 50.570 178.8672
36.757455 50.491 175.2084
37.023814 50.331 171.8618
37.292104 50.108 168.9858
37.562338 49.842 166.6743
37.834530 49.558 164.9521
38.108695 49.279 163.8066
38.384846 49.021 163.1797
38.662999 48.797 162.9794
38.943167 48.609 163.1188
39.225365 48.459 163.5561
39.509608 48.345 164.2806
39.795911 48.267 165.3158
40.084289 48.231 166.7275
40.374756 48.250 168.6286
40.667328 48.358 171.1705
40.962020 48.616 174.4243
41.258848 49.096 178.1640
41.557827 49.843 -178.2507
41.858972 50.834 -175.6880
42.162299 51.985 -174.8318
42.467824 53.183 -175.9255
42.775564 54.334 -178.8291
43.085533 55.374 176.7925
43.397749 56.270 171.3205
43.712227 57.011 165.1080
44.028983 57.598 158.4473
44.348036 58.038 151.5636
44.669400 58.341 144.6293
44.993093 58.517 137.7821
45.319131 58.578 131.1422
45.647532 58.535 124.8281
45.978313 58.403 118.9617
46.311491 58.204 113.6560
46.647083 57.966 108.9842
46.985107 57.723 104.9390
47.325581 57.504 101.4117
47.668521 57.327 98.2243
48.013947 57.190 95.2152
48.361876 57.084 92.3226
48.712326 57.007 89.5958
49.065315 56.973 87.1114
49.420863 57.013 84.8423
49.778987 57.153 82.5791
50.139706 57.399 79.9944
50.503039 57.727 76.8136
50.869005 58.104 72.9276
51.237623 58.511 68.3589
51.608912 58.945 63.1166
51.982891 59.414 57.0677
52.359580 59.905 49.9365
52.739000 60.380 41.4360
53.121168 60.780 31.4214
53.506106 61.039 19.9518
53.893833 61.104 7.2189
54.284370 60.937 -6.4928
54.677737 60.518 -20.8367
55.073955 59.845 -35.4508
55.473043 58.931 -49.9838
55.875024 57.812 -64.1298
56.279917 56.540 -77.6764
56.687745 55.197 -90.5046
57.098527 53.882 -102.6779
57.512287 52.710 -114.4470
57.929045 51.784 -126.1370
58.348822 51.184 -138.0138
58.771642 50.939 -150.2974
59.197525 51.022 -163.0834
59.626495 51.353 -176.3397
60.058573 51.832 170.0500
60.493782 52.359 156.2450
60.932145 52.858 142.4226
61.373685 53.273 128.6875
61.818424 53.567 115.1814
62.266386 53.713 102.0947
62.717593 53.703 89.5743
63.172071 53.548 77.8472
63.629842 53.284 67.1372
64.090930 52.967 57.4861
64.555359 52.661 48.7323
65.023154 52.410 40.5098
65.494339 52.224 32.4465
65.968938 52.093 24.3154
66.446976 52.009 16.0942
66.928478 51.988 7.8181
67.413469 52.057 -0.5770
67.901975 52.235 -9.2778
68.394021 52.514 -18.4890
68.889632 52.871 -28.2428
69.388835 53.288 -38.3846
69.891655 53.771 -48.7084
70.398118 54.340 -59.1307
70.908252 55.001 -69.7878
71.422083 55.722 -80.9487
71.939636 56.437 -92.7284
72.460941 57.079 -104.9558
72.986023 57.611 -117.2606
73.514909 58.042 -129.1824
74.047629 58.415 -140.4825
74.584208 58.783 -151.2234
75.124676 59.168 -161.7943
75.669061 59.549 -172.6553
76.217390 59.866 175.8867
76.769692 60.057 163.7759
77.325997 60.067 151.0494
77.886333 59.850 137.8223
78.450730 59.350 124.1305
79.019216 58.494 110.0269
79.591822 57.180 95.7880
80.168577 55.280 81.8741
80.749512 52.676 69.2911
81.334656 49.552 61.8743
81.924040 47.870 177.2179
82.517696 49.700 -159.2236
83.115653 52.596 -165.4595
83.717943 55.094 -173.7252
84.324598 57.103 176.8883
84.935649 58.677 166.5012
85.551128 59.850 155.3971
86.171066 60.647 144.1028
86.795497 61.117 133.3256
87.424453 61.353 123.7163
88.057967 61.475 115.4569
88.696071 61.577 108.1169
89.338800 61.688 101.0964
89.986185 61.801 94.1903
90.638262 61.939 87.4480
91.295065 62.147 80.4791
91.956626 62.401 72.2544
92.622982 62.561 61.9120
93.294166 62.436 49.5431
93.970214 61.867 36.1733
94.651161 60.770 23.4412
95.337042 59.159 13.4097
96.027894 57.191 8.2009
96.723752 55.200 8.5089
97.424652 53.579 11.7058
98.130631 52.458 14.1738
98.841726 51.648 15.0194
99.557974 50.933 14.8643
100.279412 50.180 14.1965
101.006078 49.327 14.0674
101.738010 48.470 16.2800
102.475245 47.865 20.3973
103.217823 47.574 22.6226
103.965782 47.308 21.5486
104.719161 46.819 19.3177
105.477999 46.113 18.2173
106.242336 45.385 19.0405
107.012212 44.876 20.4146
107.787666 44.670 19.4956
108.568740 44.643 14.2166
109.355474 44.620 3.4448
110.147909 44.460 -13.7864
110.946086 44.139 -37.8251
111.750047 43.892 -67.3204
112.559834 44.168 -97.4530
113.375489 45.194 -122.2366
114.197055 46.741 -140.4399
115.024574 48.460 -154.2975
115.858089 50.092 -166.1584
116.697645 51.500 -177.0081
117.543284 52.661 173.2662
118.395051 53.619 164.8052
119.252990 54.422 157.4625
120.117147 55.119 151.2493
120.987565 55.793 146.3397
121.864291 56.528 142.2739
122.747370 57.330 138.0520
123.636848 58.145 133.1382
124.532771 58.906 127.3939
125.435187 59.549 120.7889
126.344142 60.035 113.9316
127.259684 60.415 107.7068
128.181860 60.783 102.1711
129.110718 61.188 96.6924
130.046308 61.637 90.9474
130.988677 62.115 84.4794
131.937875 62.540 76.4486
132.893951 62.786 66.8994
133.856956 62.810 56.9265
134.826938 62.683 47.1918
135.803950 62.479 36.8762
136.788041 62.128 24.5111
137.779264 61.432 9.6929
138.777669 60.206 -6.6824
139.783309 58.385 -23.9607
140.796237 56.056 -44.3412
141.816504 53.604 -77.9895
142.844165 52.234 -154.6855
143.879273 52.981 148.7817
144.921881 54.658 123.9949
145.972045 56.102 107.3459
147.029819 57.056 94.1958
148.095257 57.609 83.7874
149.168417 57.875 75.2107
150.249353 57.886 67.8079
151.338121 57.703 62.4143
152.434780 57.573 60.7319
153.539385 57.840 61.6626
154.651995 58.435 59.3074
155.772667 58.859 51.8262
156.901460 58.797 42.7939
158.038432 58.254 35.3579
159.183644 57.381 30.8899
160.337154 56.372 29.8911
161.499023 55.499 32.9507
162.669312 55.205 40.5781
163.848081 55.828 49.1411
165.035392 57.010 51.1111
166.231306 58.047 45.1741
167.435887 58.510 34.8008
168.649196 58.272 23.7344
169.871298 57.391 15.1143
171.102255 56.089 11.7029
172.342133 54.800 15.2900
173.590995 53.955 20.4417
174.848907 53.357 20.8352
176.115934 52.580 20.8787
177.392143 51.891 30.2190
178.677599 52.150 47.8894
179.972371 53.206 55.1851
181.276525 54.213 54.0696
182.590129 55.122 54.5408
183.913252 56.376 58.5635
185.245964 57.890 58.0283
186.588332 59.114 49.8726
187.940428 59.719 37.9834
189.302322 59.714 26.2683
190.674085 59.229 15.6255
192.055788 58.270 5.1941
193.447503 56.716 -3.9492
194.849303 54.574 -8.3652
196.261262 52.712 0.2073
197.683452 53.632 68.1143
199.115948 56.794 94.7063
200.558824 59.686 85.7939
202.012156 61.695 70.6982
203.476019 62.884 54.7583
204.950490 63.379 39.5754
206.435646 63.297 26.3489
207.931564 62.875 17.4417
209.438322 62.558 13.5034
210.955998 62.579 9.1431
212.484672 62.566 -0.1360
214.024424 62.025 -11.6047
215.575333 60.897 -18.3975
217.137481 59.790 -14.8733
218.710948 59.507 -9.4604
220.295818 59.894 -11.2412
221.892172 60.243 -19.4373
223.500094 60.002 -32.4670
225.119668 58.873 -45.4067
226.750978 56.923 -51.9539
228.394109 54.526 -52.7107
230.049147 52.213 -47.3984
231.716178 51.503 -1.4609
233.395289 53.279 29.2493
235.086567 55.461 25.1807
236.790102 56.863 12.7490
238.505980 57.224 -2.7949
240.234293 56.465 -17.4392
241.975130 54.841 -21.4260
243.728581 53.715 5.3054
245.494739 54.459 29.0115
247.273695 55.875 27.7312
249.065542 57.286 26.9773
250.870374 59.000 29.8328
252.688284 60.758 26.0420
254.519367 62.090 15.7781
256.363720 62.860 3.5562
258.221437 63.174 -7.9805
260.092616 63.117 -19.2144
261.977354 62.616 -30.7178
263.875750 61.621 -39.3186
265.787903 60.517 -39.3708
267.713911 60.148 -31.9148
269.653877 60.660 -30.3655
271.607900 61.167 -38.4097
273.576083 61.076 -49.5474
275.558528 60.348 -58.8293
277.555338 59.382 -60.0327
279.566619 59.073 -51.4851
281.592474 59.459 -52.9556
283.633009 59.412 -65.6396
285.688331 58.437 -75.7463
287.758546 57.340 -66.8313
289.843763 57.662 -48.1228
291.944090 58.931 -49.6951
294.059638 59.810 -62.0298
296.190515 59.950 -76.0684
298.336833 59.431 -89.6748
300.498705 58.262 -103.6226
302.676243 56.365 -115.7800
304.869559 54.311 -105.0396
307.078770 54.379 -42.6992
309.303989 56.688 -36.0176
311.545334 59.058 -45.1560
313.802919 60.807 -59.2649
316.076865 61.945 -75.0337
318.367288 62.578 -91.3025
320.674309 62.717 -108.3784
322.998047 62.298 -125.4021
325.338624 61.380 -139.3171
327.696162 60.368 -146.7102
330.070783 59.845 -151.3853
332.462612 59.708 -161.5754
334.871773 59.334 -175.6138
337.298392 58.610 173.5427
339.742595 58.054 167.7083
342.204510 58.068 161.0518
344.684265 58.369 149.4624
347.181989 58.505 134.5471
349.697813 58.300 119.2068
352.231868 57.900 106.4580
354.784285 57.621 95.7385
357.355198 57.576 84.3894
359.944741 57.628 71.3638
362.553049 57.501 55.5789
365.180258 56.907 38.6208
367.826505 55.871 24.9773
370.491927 54.640 11.5127
373.176665 52.997 -5.8496
375.880856 50.883 -7.1643
378.604644 50.233 68.8733
381.348169 52.216 75.7798
384.111575 54.753 66.9568
386.895006 56.861 54.3899
389.698607 58.249 37.2078
392.522524 58.856 18.6707
395.366904 58.850 1.6548
398.231895 58.312 -14.7515
401.117648 57.163 -28.6821
404.024312 55.757 -28.8340
406.952038 55.284 -19.3560
409.900981 56.066 -19.6116
412.871292 57.128 -28.8411
415.863128 57.600 -45.6001
418.876643 57.158 -63.0708
421.911996 56.161 -71.1733
424.969344 55.447 -74.5574
428.048847 54.902 -86.9480
431.150666 54.054 -96.8062
434.274961 53.670 -96.5706
437.421897 54.324 -102.4800
440.591636 55.080 -120.9397
443.784345 55.115 -145.7378
447.000189 54.313 -169.6890
450.239337 53.225 173.1655
453.501956 52.798 158.6479
456.788219 53.165 140.0151
460.098294 53.639 116.9368
463.432356 53.717 92.6760
466.790578 53.337 69.8232
470.173135 52.525 49.6829
473.580203 51.460 35.3528
477.011961 50.485 25.6104
480.468586 49.532 15.8872
483.950259 48.950 34.2793
487.457163 49.561 43.3135
490.989478 50.582 32.2996
494.547390 51.403 20.3445
498.131084 52.020 8.8120
501.740748 52.202 -6.9761
505.376568 51.769 -22.5576
509.038735 51.051 -35.4690
512.727439 50.596 -45.7678
516.442874 50.863 -59.6003
520.185232 51.274 -90.0686
523.954708 51.356 -134.5327
527.751500 51.490 170.0364
531.575805 51.626 115.2996
535.427822 51.348 75.0325
539.307753 51.428 53.6531
543.215800 52.761 37.8628
547.152165 54.543 14.7092
551.117055 56.032 -15.0789
555.110677 57.000 -51.1726
559.133237 57.417 -92.0708
563.184947 57.480 -134.6038
567.266018 57.427 -174.6938
571.376661 57.376 150.0059
575.517092 57.303 120.4209
579.687526 57.388 97.5830
583.888181 57.852 77.4150
588.119275 58.348 53.5530
592.381030 58.266 23.9265
596.673667 57.218 -10.9688
600.997410 55.630 -56.1516
605.352485 55.232 126.4558
609.739119 56.383 85.4373
614.157540 57.468 54.8655
618.607979 57.616 26.6152
623.090667 56.793 6.8438
627.605839 56.453 5.6577
632.153730 57.596 -4.9565
636.734576 58.691 -36.9795
641.348617 58.582 -82.7891
645.996094 57.007 -136.2817
650.677248 54.823 179.0107
655.392323 54.568 150.7393
660.141566 55.926 117.8770
664.925224 56.844 86.9258
669.743546 57.214 64.9741
674.596784 57.651 48.5278
679.485191 57.933 28.2358
684.409020 57.497 6.7593
689.368530 56.583 -8.3608
694.363979 55.830 -26.7310
699.395626 55.194 -55.5781
704.463736 55.020 -100.9595
709.568570 55.369 175.5312
714.710396 55.313 102.2402
719.889483 54.264 57.7480
725.106099 52.871 65.5078
730.360516 53.125 98.3247
735.653010 54.549 81.7720
740.983855 55.593 58.4380
746.353329 56.881 56.3364
751.761713 58.878 107.3301
757.209288 60.421 87.7422
762.696339 60.907 62.9277
768.223151 60.689 45.5767
773.790013 60.207 32.9077
779.397214 59.594 23.3799
785.045047 59.556 29.9087
790.733808 60.744 36.7310
796.463791 61.813 23.9858
802.235296 61.990 9.3071
808.048623 61.808 -0.7432
813.904077 61.630 -11.4038
819.801961 61.405 -23.4263
825.742584 60.939 -39.6304
831.726255 59.725 -57.6982
837.753287 57.850 -48.3745
843.823992 56.187 -40.6201
849.938689 54.879 -57.0630
856.097695 54.841 45.5293
862.301332 56.417 52.2456
868.549922 58.498 38.5825
874.843793 61.137 33.8228
881.183272 63.617 21.0630
887.568689 65.107 -1.7051
894.000378 65.442 -26.3311
900.478673 64.931 -47.4741
907.003913 64.024 -66.0562
913.576437 62.939 -84.3071
920.196588 61.665 -105.3105
926.864712 59.833 -130.8813
933.581156 57.419 -154.8906
940.346270 55.749 174.0962
947.160407 55.446 116.9468
954.023921 55.465 66.8623
960.937172 55.602 40.3350
967.900519 56.301 29.9966
974.914325 57.051 15.3184
981.978956 57.689 9.5967
989.094780 58.963 10.8257
996.262169 60.244 -1.0820
1003.481495 61.173 -11.6416
1010.753136 62.023 -21.5513
1018.077470 62.279 -39.4106
1025.454879 61.663 -57.1494
1032.885748 60.334 -71.0186
1040.370463 58.510 -81.2524
1047.909417 56.724 -78.2422
1055.503000 56.821 -49.1431
1063.151610 58.649 -46.9595
1070.855645 59.821 -67.8916
1078.615506 59.419 -90.6943
1086.431599 58.120 -79.7637
1094.304330 57.533 -67.0547
1102.234110 57.677 -79.0317
1110.221353 57.430 -98.2363
1118.266475 56.103 -115.7847
1126.369895 54.492 -111.4131
1134.532035 54.266 -97.0308
1142.753322 54.534 -107.9219
1151.034184 54.418 -87.0957
1159.375052 54.090 -89.6724
1167.776361 53.438 -107.1548
1176.238550 52.711 -127.8789
1184.762060 51.710 -155.6128
1193.347334 50.528 169.6016
1201.994821 49.938 118.7544
1210.704971 50.211 62.6460
1219.478238 50.724 15.6226
1228.315080 50.441 -24.3320
1237.215957 50.150 -46.1860
1246.181334 51.030 56.0005
1255.211678 53.337 49.7607
1264.307459 56.341 40.9580
1273.469152 58.753 23.6792
1282.697235 59.850 -2.0205
1291.992188 60.019 -21.4512
1301.354495 60.156 -35.1338
1310.784647 60.438 -48.7432
1320.283132 60.723 -62.4077
1329.850448 60.820 -78.8032
1339.487093 60.375 -98.5303
1349.193569 58.994 -118.6597
1358.970381 56.987 -122.7949
1368.818041 55.749 -109.1162
1378.737061 55.072 -121.2349
1388.727958 54.675 -133.4512
1398.791253 55.765 -60.7549
1408.927471 57.325 -75.1196
1419.137140 58.162 -97.1655
1429.420793 59.264 -108.5439
1439.778965 60.193 -147.6992
1450.212197 59.719 133.8853
1460.721033 58.467 -12.4189
1471.306019 58.143 -61.0420
1481.967709 58.153 -101.1274
1492.706658 56.947 -120.0991
1503.523426 55.136 -89.0171
1514.418576 54.984 -101.4927
1525.392678 56.237 -147.4565
1536.446302 57.610 44.4292
1547.580025 58.968 -8.7202
1558.794428 60.407 -38.8276
1570.090095 61.835 -62.9731
1581.467615 62.682 -88.0059
1592.927581 62.707 -112.1025
1604.470591 62.170 -130.9194
1616.097246 61.737 -146.4331
1627.808153 61.523 -165.2725
1639.603922 61.432 172.0708
1651.485168 61.128 139.7002
1663.452510 60.181 96.8491
1675.506573 59.335 37.7456
1687.647984 59.689 -29.4131
1699.877377 60.526 -84.9937
1712.195390 60.241 -128.0410
1724.602663 59.205 -148.2817
1737.099845 59.131 -170.3452
1749.687587 58.971 149.5967
1762.366544 57.439 110.6255
1775.137379 56.141 38.3228
1788.000756 56.566 -32.4077
1800.957346 57.688 -72.3901
1814.007826 58.790 -103.9580
1827.152874 59.159 -135.8887
1840.393177 58.137 -165.2925
1853.729425 56.000 -174.1680
1867.162312 54.991 -149.6284
1880.692540 56.509 -141.1816
1894.320813 58.193 -138.3208
1908.047843 58.578 -157.7344
1921.874344 58.107 -179.4272
1935.801038 57.711 157.2031
1949.828650 57.493 169.9604
1963.957912 57.876 -132.9062
1978.189561 58.324 -155.7300
1992.524338 58.216 -173.1050
2006.962991 58.740 -179.7202
2021.506272 60.037 170.1323
2036.154940 60.455 144.6880
2050.909758 59.212 121.8789
2065.771495 57.334 108.3462
2080.740927 57.135 -167.8301
2095.818833 59.102 -144.1016
2111.006001 61.002 -171.6978
2126.303220 61.948 157.9585
2141.711290 61.295 127.2725
2157.231013 58.964 109.2759
2172.863198 56.088 118.0234
2188.608660 55.546 150.6270
2204.468221 57.835 161.4434
2220.442706 60.053 149.4585
2236.532950 61.010 128.8496
2252.739789 60.872 111.0435
2269.064070 59.852 98.1157
2285.506644 58.483 92.0645
2302.068367 57.506 95.7041
2318.750104 57.515 93.9272
2335.552723 57.334 74.8989
2352.477101 56.305 57.2734
2369.524119 55.481 54.9263
2386.694668 55.375 128.0532
2403.989641 55.728 124.5903
2421.409941 56.108 114.7637
2438.956476 56.220 103.5737
2456.630160 56.256 87.2544
2474.431915 57.077 76.6177
2492.362668 59.193 128.5283
2510.423356 61.197 141.6226
2528.614918 61.985 109.0552
2546.938304 61.585 77.8257
2565.394469 60.117 55.0327
2583.984375 58.105 42.5918
2602.708991 56.444 33.6631
2621.569293 55.150 16.0435
2640.566265 53.477 15.8789
2659.700897 52.052 49.0146
2678.974186 52.200 59.2246
2698.387137 54.418 150.8164
2717.940763 57.181 144.5171
2737.636082 58.579 107.3252
2757.474121 57.917 69.7534
2777.455915 56.381 48.1758
2797.582506 56.556 131.0620
2817.854942 58.388 112.8066
2838.274281 59.421 77.5435
2858.841586 58.623 48.7837
2879.557931 56.900 50.0532
2900.424394 55.543 66.0098
2921.442065 54.548 68.5889
2942.612039 54.245 52.6265
2963.935418 55.734 14.0688
2985.413316 57.727 176.3047
3007.046852 58.504 137.2803
3028.837153 57.941 107.2964
3050.785356 56.620 93.7095
3072.892604 56.109 96.0444
3095.160050 56.832 99.2891
3117.588856 57.250 84.7812
3140.180190 56.777 72.0981
3162.935230 55.873 64.0288
3185.855163 55.092 65.0527
3208.941182 55.197 82.5020
3232.194493 55.848 77.6060
3255.616307 55.947 66.2368
3279.207844 55.279 66.6460
3302.970336 54.911 76.3467
3326.905021 55.236 72.4092
3351.013146 55.568 64.8960
3375.295969 55.854 58.8813
3399.754755 56.073 63.0332
3424.390779 56.390 66.5835
3449.205326 56.380 49.7954
3474.199690 55.680 36.3594
3499.375173 54.915 40.4927
3524.733088 54.309 44.3242
3550.274757 53.282 32.2632
3576.001511 51.628 28.3911
3601.914692 51.088 64.2144
3628.015651 52.394 80.2031
3654.305748 53.247 57.7202
3680.786354 52.690 41.5742
3707.458849 51.245 63.7207
3734.324624 49.721 67.7119
3761.385080 49.321 72.8452
3788.641627 51.255 115.7588
3816.095686 53.789 124.6772
3843.748688 55.170 107.4331
3871.602076 56.039 110.4062
3899.657300 57.263 107.4346
3927.915825 57.650 89.2534
3956.379122 57.306 84.7715
3985.048676 57.014 80.6123
4013.925981 56.618 74.9033
4043.012544 56.380 72.2612
4072.309879 56.469 74.2437
4101.819515 57.094 80.7734
4131.542990 57.459 71.8525
4161.481854 57.424 68.5322
4191.637667 57.597 62.2729
4222.012001 57.588 53.3833
4252.606441 57.455 45.9956
4283.422580 57.009 35.8179
4314.462026 56.264 28.7231
4345.726396 55.525 21.6558
4377.217321 54.679 22.0659
4408.936442 54.319 37.5967
4440.885413 54.425 39.8867
4473.065899 53.897 35.4272
4505.479579 53.970 47.0542
4538.128141 54.600 38.6313
4571.013288 53.993 21.5137
4604.136735 52.434 15.3159
4637.500207 51.163 24.8022
4671.105446 51.460 62.3740
4704.954201 52.485 73.0083
4739.048239 52.782 69.0190
4773.389336 52.405 71.0068
4807.979283 52.108 71.8779
4842.819883 52.207 66.9038
4877.912952 52.496 65.6030
4913.260320 52.958 69.9541
4948.863830 53.037 63.0850
4984.725337 53.072 68.2490
5020.846712 54.065 75.9170
5057.229836 54.991 66.7153
5093.876609 54.936 53.5361
5130.788938 54.373 52.6655
5167.968750 54.372 63.7163
5205.417982 54.637 60.3247
5243.138586 54.280 52.0679
5281.132530 54.186 61.9751
5319.401793 54.674 60.7314
5357.948371 54.860 51.1104
5396.774274 54.737 45.7676
5435.881525 54.418 40.4033
5475.272163 53.778 33.0415
5514.948243 52.975 40.9443
5554.911831 53.113 66.7275
5595.165012 54.270 65.6802
5635.709884 54.692 51.7383
5676.548561 54.259 46.5010
5717.683172 54.095 39.9922
5759.115861 53.693 28.1450
5800.848789 53.110 45.1235
5842.884130 53.015 60.2910
5885.224077 53.146 63.3008
5927.870837 53.594 63.0229
5970.826633 53.851 55.0771
6014.093704 53.633 48.0698
6057.674306 53.442 51.2583
6101.570711 53.833 64.9048
6145.785208 54.597 63.0293
6190.320101 55.496 62.9546
6235.177712 56.322 56.9507
6280.360380 56.431 45.2817
6325.870460 56.057 40.5571
6371.710325 55.882 37.1411
6417.882365 55.968 32.8389
6464.388986 56.028 28.1060
6511.232613 55.981 27.1494
6558.415689 55.755 18.8774
6605.940673 55.061 9.1299
6653.810042 54.029 4.5107
6702.026292 52.762 0.8140
6750.591937 51.547 11.9434
6799.509509 51.161 20.3062
6848.781558 51.046 16.8481
6898.410653 51.079 24.4155
6948.399380 51.807 35.3340
6998.750346 52.879 59.5669
7049.466176 53.687 59.4912
7100.549514 53.686 45.0449
7152.003023 53.038 37.8623
7203.829385 52.488 45.0542
7256.031302 53.348 57.0981
7308.611496 54.984 56.7754
7361.572708 55.765 43.8174
7414.917698 55.459 33.2446
7468.649249 54.930 25.8750
7522.770160 54.225 23.9644
7577.283253 53.926 34.2964
7632.191371 54.164 32.1406
7687.497376 54.260 26.0044
7743.204151 53.939 20.4814
7799.314600 53.585 26.2578
7855.831649 53.867 35.9561
7912.758244 54.363 34.5181
7970.097352 54.690 30.9419
8027.851962 54.618 26.6655
8086.025087 54.450 30.6675
8144.619758 54.843 35.8252
8203.639030 55.495 32.4878
8263.085980 55.900 25.3169
8322.963708 55.958 17.9668
8383.275334 55.817 13.2969
8444.024002 55.757 9.8208
8505.212881 55.809 3.7437
8566.845160 55.502 -7.7520
8628.924051 54.290 -17.1895
8691.452792 52.499 -10.8657
8754.434642 51.594 7.0220
8817.872884 51.661 17.6055
8881.770826 51.868 19.1582
8946.131799 52.649 31.6484
9010.959157 54.482 43.1196
9076.256282 56.002 35.0415
9142.026576 56.315 20.0308
9208.273470 55.949 8.9614
9275.000415 55.480 2.4722
9342.210891 55.058 -3.3716
9409.908403 54.281 -9.4214
9478.096478 53.229 -7.0801
9546.778672 52.441 2.9380
9615.958566 52.671 18.4229
9685.639765 53.430 14.8179
9755.825904 53.700 7.7969
9826.520640 53.969 13.8975
9897.727659 54.525 13.3896
9969.450674 54.719 3.5728
10041.693423 54.479 -3.6426
10114.459673 54.257 -0.2256
10187.753217 54.178 -6.0103
10261.577877 53.527 -16.2568
10335.937500 52.432 -16.1294
10410.835964 51.956 -4.2432
10486.277173 52.376 2.8662
10562.265060 52.687 -0.1748
10638.803587 52.668 5.1333
10715.896743 53.244 8.0918
10793.548548 53.652 -1.9614
10871.763050 53.059 -10.5249
10950.544327 52.338 -10.7041
11029.896485 52.074 -9.4570
11109.823662 51.769 -13.2217
11190.330024 51.307 -7.2690
11271.419768 51.844 10.0342
11353.097122 52.951 9.6704
11435.366344 53.531 3.4639
11518.231722 53.614 3.8916
11601.697577 53.513 -0.1816
11685.768261 52.938 -10.5610
11770.448155 52.230 -13.0015
11855.741674 52.014 -11.8140
11941.653265 51.832 -16.2505
12028.187408 51.192 -17.4082
12115.348612 50.590 -1.2861
12203.141422 50.687 4.7280
12291.570415 51.142 5.0771
12380.640201 52.015 4.6987
12470.355424 52.734 -2.8862
12560.720760 52.601 -13.8926
12651.740920 51.926 -16.1846
12743.420650 51.364 -17.4614
12835.764729 50.673 -17.4062
12928.777972 50.545 -1.6235
13022.465227 51.208 1.8057
13116.831378 51.768 -3.2158
13211.881345 52.092 -5.5464
13307.620084 52.524 -6.4424
13404.052584 52.738 -13.3828
13501.183875 52.610 -18.6289
13599.019019 52.286 -24.2734
13697.563116 51.545 -30.5996
13796.821305 50.654 -30.1631
13896.798760 50.336 -26.2183
13997.500692 50.286 -26.7725
14098.932352 50.320 -24.7456
14201.099028 50.503 -25.8242
14304.006046 50.436 -31.1235
14407.658770 50.175 -31.7661
14512.062604 49.777 -36.2705
14617.222992 49.195 -40.5957
14723.145416 48.679 -42.0142
14829.835397 48.192 -46.0952
14937.298497 47.567 -47.5083
15045.540320 47.155 -46.4502
15154.566507 46.830 -50.6548
15264.382743 46.310 -55.2529
15374.994752 45.460 -62.2349
15486.408302 43.957 -65.6274
15598.629201 42.466 -50.1851
15711.663298 41.873 -38.9053
15825.516487 42.154 -32.0396
15940.194703 42.405 -39.1099
16055.703925 41.866 -44.8789
16172.050174 41.206 -43.6255
16289.239516 40.509 -42.8467
16407.278061 40.182 -16.9971
16526.171961 40.549 -6.6431
16645.927415 41.408 -5.5776
16766.550667 41.970 -17.4609
16888.048005 41.329 -23.8940
17010.425762 40.417 6.1738
17133.690320 41.171 34.6045
17257.848103 42.928 40.1714
17382.905584 44.093 32.4839
17508.869284 44.775 24.4077
17635.745768 45.036 14.3486
17763.541652 45.060 11.7271
17892.263597 45.075 9.6587
18021.918315 44.959 6.6865
18152.512564 44.876 3.1050
18284.053153 44.865 2.1011
18416.546939 44.872 0.6548
18550.000830 44.908 -1.2920
18684.421783 45.057 -5.4492
18819.816805 44.914 -12.7129
18956.192956 44.387 -18.8867
19093.557344 43.620 -24.9941
19231.917131 42.593 -30.3716
19371.279531 41.271 -32.9800
19511.651807 39.882 -30.8911
19653.041280 38.850 -26.2959
19795.455318 38.171 -23.1304
19938.901348 37.657 -25.1504
