* Measurement data measured by REW V5.31
* Source: Scarlett 2i4 USB, MICROPHONE, R, volume: no control. Timing signal peak level -36.1 dBFS, measurement signal peak level -30.6 dBFS
* Format: 512k Log Swept Sine, 1 sweep at -18.0 dBFS using an acoustic timing reference
* Dated: Apr 24, 2024 6:20:07 PM
* REW Settings:
*  C-weighting compensation: Off
*  Target level: 75.0 dB
* Note: ; Delay -0.0134 ms (-4.6 mm, -0.18 in) using estimated IR delay relative to Acoustic reference played from SPEAKER L with no timing offset
* Measurement: qrd-2nd-p1-l
* Smoothing: 1/48 octave
* Frequency Step: 96 ppo
* Start Frequency: 10.093689 Hz
*
* Freq(Hz) SPL(dB) Phase(degrees)
10.093689 13.407 47.5150
10.166832 14.188 26.5796
10.240505 15.121 6.4802
10.314712 16.077 -9.8226
10.389457 17.036 -22.2408
10.464743 17.980 -32.2163
10.540575 18.906 -41.7862
10.616956 19.793 -50.5693
10.693891 20.585 -58.2556
10.771383 21.233 -64.8935
10.849437 21.731 -71.6689
10.928057 22.095 -78.8883
11.007246 22.327 -85.9357
11.087009 22.422 -92.3943
11.167350 22.378 -98.7876
11.248273 22.191 -106.3263
11.329783 21.858 -114.4920
11.411883 21.360 -122.6713
11.494578 20.615 -131.1329
11.577873 19.556 -142.5944
11.661771 18.472 -157.7954
11.746277 17.795 -177.0759
11.831395 17.873 157.5969
11.917130 18.623 124.0993
12.003487 19.789 95.7065
12.090469 21.152 76.4369
12.178081 22.659 61.7937
12.266329 24.357 49.8513
12.355216 26.062 40.2611
12.444747 27.573 32.0855
12.534926 28.831 24.2142
12.625760 29.913 16.6184
12.717251 30.865 9.6299
12.809406 31.716 3.1274
12.902228 32.457 -3.6265
12.995723 33.091 -10.3659
13.089895 33.635 -16.7332
13.184750 34.098 -22.8950
13.280292 34.473 -29.4530
13.376526 34.763 -35.9615
13.473458 34.975 -42.0620
13.571093 35.107 -48.3759
13.669434 35.156 -54.9791
13.768489 35.122 -61.3820
13.868261 35.004 -67.5373
13.968756 34.801 -74.1544
14.069979 34.503 -80.8624
14.171936 34.105 -87.1910
14.274632 33.608 -93.8351
14.378072 32.997 -100.8414
14.482261 32.251 -107.6652
14.587206 31.374 -114.5587
14.692910 30.343 -122.0729
14.799381 29.100 -129.9319
14.906624 27.588 -137.9358
15.014643 25.838 -147.2335
15.123446 23.944 -158.7046
15.233036 21.849 -173.0617
15.343421 19.651 163.9757
15.454606 18.135 123.5616
15.566596 18.160 82.2573
15.679398 19.382 54.5193
15.793018 20.782 38.7922
15.907460 21.843 29.1235
16.022732 22.724 20.9978
16.138840 23.398 14.9774
16.255788 23.812 10.9100
16.373585 24.028 7.6284
16.492234 24.178 5.5499
16.611744 24.303 5.0135
16.732119 24.442 5.4490
16.853367 24.708 6.2032
16.975494 25.132 7.5684
17.098505 25.671 8.7651
17.222408 26.293 8.8844
17.347209 26.992 8.3862
17.472914 27.688 7.0573
17.599530 28.324 4.6887
17.727063 28.901 1.6493
17.855521 29.389 -1.7554
17.984909 29.778 -5.7615
18.115235 30.071 -10.0080
18.246506 30.266 -14.1550
18.378727 30.364 -18.5516
18.511907 30.378 -22.6700
18.646052 30.310 -26.4877
18.781169 30.175 -30.0777
18.917265 29.998 -33.0266
19.054347 29.785 -35.4257
19.192423 29.583 -37.2687
19.331499 29.412 -38.3527
19.471583 29.298 -38.8819
19.612682 29.280 -39.0897
19.754804 29.359 -38.9046
19.897956 29.525 -38.8264
20.042144 29.778 -38.8373
20.187378 30.083 -39.0661
20.333664 30.417 -39.6202
20.481010 30.768 -40.3855
20.629424 31.114 -41.3202
20.778913 31.457 -42.3987
20.929486 31.794 -43.4983
21.081150 32.126 -44.6230
21.233912 32.459 -45.7496
21.387782 32.794 -46.8600
21.542767 33.132 -47.9904
21.698874 33.471 -49.1530
21.856113 33.807 -50.3378
22.014492 34.134 -51.5617
22.174018 34.450 -52.7889
22.334700 34.754 -53.9769
22.496546 35.049 -55.1249
22.659566 35.340 -56.1715
22.823766 35.634 -57.1465
22.989157 35.942 -58.0809
23.155745 36.266 -58.9943
23.323542 36.605 -60.0297
23.492554 36.956 -61.1688
23.662790 37.301 -62.5321
23.834261 37.631 -64.0660
24.006973 37.924 -65.7166
24.180938 38.175 -67.4208
24.356163 38.375 -68.9225
24.532658 38.537 -70.1729
24.710431 38.684 -70.8328
24.889493 38.859 -70.9565
25.069853 39.117 -70.3823
25.251519 39.505 -69.5364
25.434502 40.060 -68.5844
25.618811 40.759 -68.2947
25.804456 41.574 -68.7553
25.991445 42.426 -70.4277
26.179790 43.270 -73.0815
26.369500 44.047 -76.7162
26.560584 44.734 -81.0320
26.753053 45.307 -85.8652
26.946917 45.765 -90.8953
27.142185 46.104 -96.0622
27.338869 46.340 -100.9595
27.536977 46.485 -105.6324
27.736522 46.573 -109.7424
27.937512 46.631 -113.3998
28.139959 46.699 -116.4911
28.343872 46.808 -119.3182
28.549264 46.971 -121.9537
28.756143 47.183 -124.8450
28.964522 47.415 -128.0693
29.174411 47.631 -131.8546
29.385821 47.780 -136.0950
29.598763 47.831 -140.7534
29.813248 47.747 -145.6117
30.029287 47.506 -150.2982
30.246891 47.097 -154.6777
30.466073 46.522 -158.0710
30.686842 45.819 -160.1411
30.909212 45.049 -160.2291
31.133193 44.370 -157.9854
31.358797 43.957 -153.7506
31.586035 43.943 -148.4629
31.814921 44.317 -144.1528
32.045465 44.924 -141.6576
32.277680 45.607 -141.1482
32.511577 46.229 -142.2356
32.747169 46.746 -144.2681
32.984469 47.143 -146.8589
33.223488 47.428 -149.5732
33.464239 47.634 -152.0862
33.706735 47.792 -154.2915
33.950987 47.943 -156.0862
34.197010 48.128 -157.5403
34.444816 48.372 -158.8859
34.694417 48.685 -160.3467
34.945827 49.054 -162.1877
35.199059 49.444 -164.6531
35.454126 49.815 -167.7595
35.711041 50.129 -171.4517
35.969818 50.352 -175.6282
36.230470 50.462 179.9769
36.493011 50.448 175.6248
36.757455 50.314 171.5327
37.023814 50.076 167.9340
37.292104 49.759 165.0544
37.562338 49.401 162.9739
37.834530 49.036 161.6576
38.108695 48.687 161.0269
38.384846 48.365 160.9731
38.662999 48.072 161.4348
38.943167 47.815 162.4644
39.225365 47.619 164.1138
39.509608 47.518 166.2844
39.795911 47.536 168.7032
40.084289 47.665 171.0205
40.374756 47.866 173.0304
40.667328 48.096 174.9058
40.962020 48.363 177.1631
41.258848 48.752 -179.7668
41.557827 49.385 -176.0422
41.858972 50.329 -172.6433
42.162299 51.532 -170.8601
42.467824 52.849 -171.4481
42.775564 54.129 -174.3838
43.085533 55.273 -179.1909
43.397749 56.237 174.7146
43.712227 57.014 167.8560
44.028983 57.615 160.6339
44.348036 58.060 153.3198
44.669400 58.371 146.0803
44.993093 58.565 139.0101
45.319131 58.653 132.1697
45.647532 58.641 125.6289
45.978313 58.534 119.4990
46.311491 58.344 113.9329
46.647083 58.098 109.0880
46.985107 57.837 105.0448
47.325581 57.607 101.7200
47.668521 57.444 98.8474
48.013947 57.352 96.0905
48.361876 57.307 93.2266
48.712326 57.279 90.2559
49.065315 57.260 87.3446
49.420863 57.272 84.6484
49.778987 57.355 82.1355
50.139706 57.540 79.5433
50.503039 57.826 76.5276
50.869005 58.188 72.8595
51.237623 58.600 68.4890
51.608912 59.057 63.4194
51.982891 59.564 57.5339
52.359580 60.113 50.5441
52.739000 60.666 42.1177
53.121168 61.154 32.0686
53.506106 61.503 20.4467
53.893833 61.650 7.4651
54.284370 61.551 -6.5549
54.677737 61.180 -21.2188
55.073955 60.532 -36.1088
55.473043 59.619 -50.8085
55.875024 58.477 -64.9403
56.279917 57.167 -78.2252
56.687745 55.780 -90.5142
57.098527 54.430 -101.9279
57.512287 53.230 -112.8571
57.929045 52.264 -123.7531
58.348822 51.572 -134.9042
58.771642 51.164 -146.4468
59.197525 51.028 -158.4009
59.626495 51.128 -170.7737
60.058573 51.402 176.4166
60.493782 51.770 163.1697
60.932145 52.155 149.5643
61.373685 52.492 135.7041
61.818424 52.730 121.7919
62.266386 52.838 108.1194
62.717593 52.807 94.9266
63.172071 52.651 82.4972
63.629842 52.408 71.0569
64.090930 52.127 60.6156
64.555359 51.855 51.0203
65.023154 51.622 42.0127
65.494339 51.442 33.3666
65.968938 51.324 24.9263
66.446976 51.286 16.5848
66.928478 51.346 8.2086
67.413469 51.520 -0.3379
67.901975 51.817 -9.1299
68.394021 52.242 -18.2072
68.889632 52.799 -27.5862
69.388835 53.482 -37.3328
69.891655 54.269 -47.4985
70.398118 55.128 -58.1678
70.908252 56.017 -69.3998
71.422083 56.885 -81.2318
71.939636 57.678 -93.6019
72.460941 58.354 -106.2819
72.986023 58.892 -118.9845
73.514909 59.300 -131.3539
74.047629 59.607 -143.1655
74.584208 59.856 -154.3442
75.124676 60.086 -165.0245
75.669061 60.316 -175.5389
76.217390 60.529 173.6699
76.769692 60.675 162.2212
77.325997 60.676 149.8939
77.886333 60.447 136.7610
78.450730 59.913 123.0227
79.019216 59.004 108.9346
79.591822 57.648 94.8402
80.168577 55.756 80.9749
80.749512 53.226 67.5597
81.334656 50.114 54.6012
81.924040 47.753 26.4442
82.517696 48.811 -143.5596
83.115653 51.689 -153.8198
83.717943 54.322 -163.2393
84.324598 56.460 -172.8242
84.935649 58.160 177.0840
85.551128 59.475 166.5342
86.171066 60.446 155.8523
86.795497 61.122 145.4854
87.424453 61.568 135.7910
88.057967 61.855 126.8713
88.696071 62.035 118.6396
89.338800 62.149 111.0322
89.986185 62.247 104.0613
90.638262 62.402 97.5654
91.295065 62.665 90.9072
91.956626 63.012 83.0574
92.622982 63.322 73.1318
93.294166 63.417 60.9055
93.970214 63.122 46.9341
94.651161 62.303 32.4270
95.337042 60.892 19.1511
96.027894 58.907 9.4255
96.723752 56.515 5.7771
97.424652 54.083 9.1819
98.130631 52.109 16.9175
98.841726 50.906 24.9253
99.557974 50.397 30.7649
100.279412 50.248 33.4473
101.006078 50.148 33.7083
101.738010 49.966 33.0178
102.475245 49.696 31.8264
103.217823 49.298 29.7344
103.965782 48.679 27.2170
104.719161 47.812 25.8484
105.477999 46.822 27.1379
106.242336 45.980 31.4766
107.012212 45.574 36.7280
107.787666 45.617 38.8040
108.568740 45.804 35.4907
109.355474 45.805 26.5195
110.147909 45.387 11.6963
110.946086 44.462 -9.6877
111.750047 43.329 -40.3765
112.559834 42.919 -82.4438
113.375489 43.941 -121.0088
114.197055 45.790 -145.7786
115.024574 47.741 -161.6912
115.858089 49.522 -173.4336
116.697645 51.032 176.5537
117.543284 52.268 167.9265
118.395051 53.304 160.7737
119.252990 54.196 154.6335
120.117147 54.980 149.4563
120.987565 55.744 145.5728
121.864291 56.581 142.4143
122.747370 57.482 138.7654
123.636848 58.368 133.9907
124.532771 59.168 128.2632
125.435187 59.856 121.9851
126.344142 60.438 115.5427
127.259684 60.948 109.2778
128.181860 61.424 103.1489
129.110718 61.874 96.8406
130.046308 62.297 90.3694
130.988677 62.700 83.5168
131.937875 63.032 75.4475
132.893951 63.171 65.9692
133.856956 63.047 56.1594
134.826938 62.730 47.2859
135.803950 62.376 39.2124
136.788041 62.033 29.9746
137.779264 61.509 17.9900
138.777669 60.522 4.0042
139.783309 58.898 -9.9949
140.796237 56.600 -23.1624
141.816504 53.647 -36.6421
142.844165 50.408 -54.2927
143.879273 49.105 136.2759
144.921881 51.055 120.9282
145.972045 53.505 110.4512
147.029819 55.278 99.3674
148.095257 56.388 89.3379
149.168417 57.056 81.2212
150.249353 57.410 74.2065
151.338121 57.505 68.3706
152.434780 57.533 65.7188
153.539385 57.848 66.2798
154.651995 58.483 64.8169
155.772667 59.027 58.7505
156.901460 59.193 51.1975
158.038432 59.027 45.1694
159.183644 58.737 41.5652
160.337154 58.526 39.6487
161.499023 58.462 37.5918
162.669312 58.444 34.1648
163.848081 58.320 29.5576
165.035392 58.033 25.1204
166.231306 57.658 21.7422
167.435887 57.243 17.9070
168.649196 56.625 12.1785
169.871298 55.568 6.2983
171.102255 54.030 4.9326
172.342133 52.444 14.6987
173.590995 51.680 30.9919
174.848907 51.956 41.1560
176.115934 52.857 48.6650
177.392143 54.110 54.0557
178.677599 55.313 53.1370
179.972371 56.063 47.1248
181.276525 56.240 40.4685
182.590129 56.131 38.2148
183.913252 56.395 42.2727
185.245964 57.354 45.5671
186.588332 58.517 41.2976
187.940428 59.301 30.8411
189.302322 59.489 17.9285
190.674085 59.082 4.4104
192.055788 58.061 -9.7031
193.447503 56.315 -23.6394
194.849303 53.793 -35.5735
196.261262 51.040 -47.2715
197.683452 50.707 -156.7830
199.115948 53.654 137.3225
200.558824 56.833 119.2595
202.012156 59.259 102.6157
203.476019 60.960 87.0420
204.950490 62.063 72.5437
206.435646 62.624 58.7585
207.931564 62.720 47.0405
209.438322 62.665 40.1455
210.955998 62.817 35.5652
212.484672 62.951 26.5056
214.024424 62.545 14.8535
215.575333 61.612 9.2444
217.137481 61.064 16.8206
218.710948 61.665 23.4226
220.295818 62.619 17.0884
221.892172 63.038 4.3320
223.500094 62.650 -9.2173
225.119668 61.552 -17.8794
226.750978 60.290 -17.0752
228.394109 59.431 -16.0437
230.049147 58.652 -21.4126
231.716178 57.540 -23.3574
233.395289 56.678 -12.3638
235.086567 56.886 -0.9504
236.790102 57.626 -1.6116
238.505980 57.981 -9.8235
240.234293 57.558 -20.4919
241.975130 56.370 -29.5364
243.728581 55.056 -31.7632
245.494739 55.352 26.6995
247.273695 57.498 53.3525
249.065542 59.604 42.5125
250.870374 61.030 29.7844
252.688284 61.915 19.0046
254.519367 62.458 9.6414
256.363720 62.763 0.9893
258.221437 62.945 -6.1938
260.092616 63.078 -13.3391
261.977354 62.991 -22.7925
263.875750 62.471 -32.2966
265.787903 61.649 -37.3281
267.713911 60.980 -37.8938
269.653877 60.679 -40.3738
271.607900 60.368 -48.4248
273.576083 59.593 -59.8511
275.558528 58.291 -72.5576
277.555338 57.223 -75.5806
279.566619 57.830 21.4167
281.592474 59.235 11.1406
283.633009 59.969 -6.1516
285.688331 60.463 -8.6882
287.758546 61.564 -6.0496
289.843763 62.828 -13.4326
291.944090 63.741 -24.4121
294.059638 64.245 -35.8367
296.190515 64.365 -47.5508
298.336833 64.051 -59.7751
300.498705 63.200 -71.6267
302.676243 61.786 -79.9128
304.869559 60.256 -75.9194
307.078770 60.001 -56.7981
309.303989 61.547 -45.7952
311.545334 63.575 -48.5090
313.802919 65.158 -60.4536
316.076865 66.081 -76.0327
318.367288 66.454 -91.8337
320.674309 66.384 -107.8584
322.998047 65.847 -124.2676
325.338624 64.777 -139.7573
327.696162 63.197 -151.4758
330.070783 61.375 -156.4233
332.462612 59.766 -158.0061
334.871773 58.635 -158.9841
337.298392 58.201 -157.4478
339.742595 58.611 -157.4644
342.204510 59.428 -164.4370
344.684265 59.972 -178.8113
347.181989 59.900 164.1216
349.697813 59.285 148.5645
352.231868 58.481 136.9102
354.784285 58.042 128.7698
357.355198 58.173 117.9485
359.944741 58.401 101.2737
362.553049 58.226 81.0938
365.180258 57.411 60.5562
367.826505 55.957 43.6384
370.491927 54.080 31.6780
373.176665 52.056 26.0964
375.880856 50.722 42.3723
378.604644 51.317 58.2461
381.348169 53.075 56.9570
384.111575 55.080 51.4702
386.895006 57.168 45.4644
389.698607 58.867 31.1106
392.522524 59.743 10.9104
395.366904 59.824 -8.6687
398.231895 59.341 -25.5134
401.117648 58.422 -40.6548
404.024312 57.132 -50.0510
406.952038 56.209 -45.0798
409.900981 56.474 -43.5962
412.871292 57.214 -53.5232
415.863128 57.549 -69.4167
418.876643 57.173 -86.7805
421.911996 56.495 -90.6621
424.969344 56.688 -79.0381
428.048847 57.397 -91.2427
431.150666 57.536 -110.7886
434.274961 57.297 -125.0710
437.421897 57.462 -135.2815
440.591636 58.068 -150.6782
443.784345 58.346 -173.9783
447.000189 57.747 159.7683
450.239337 56.158 137.6833
453.501956 54.130 130.9780
456.788219 53.059 134.6890
460.098294 53.029 123.6033
463.432356 52.788 107.4915
466.790578 52.230 98.1260
470.173135 51.892 92.3499
473.580203 51.888 85.1641
477.011961 52.840 87.2129
480.468586 55.294 97.6331
483.950259 57.936 91.6833
487.457163 59.479 67.0325
490.989478 59.592 39.1562
494.547390 58.594 18.6904
498.131084 57.346 9.3164
501.740748 56.561 -0.7710
505.376568 55.889 -16.3477
509.038735 54.639 -34.3096
512.727439 52.509 -44.8535
516.442874 50.109 -44.8232
520.185232 48.631 -52.1016
523.954708 49.318 3.9736
527.751500 51.844 47.4551
531.575805 53.874 21.5146
535.427822 54.264 -9.1318
539.307753 53.118 -31.4883
543.215800 51.601 -38.0928
547.152165 51.847 -30.9893
551.117055 53.990 -35.3955
555.110677 55.994 -60.6079
559.133237 57.082 -96.4780
563.184947 57.499 -134.7197
567.266018 57.660 -171.8413
571.376661 57.788 153.8867
575.517092 58.096 125.6123
579.687526 58.857 101.7949
583.888181 59.660 75.6943
588.119275 59.924 46.9121
592.381030 59.452 16.1924
596.673667 58.105 -17.2812
600.997410 56.264 -52.2329
605.352485 55.968 101.3677
609.739119 57.814 72.7417
614.157540 59.591 44.0532
618.607979 60.214 13.8770
623.090667 59.730 -9.7671
627.605839 59.244 -22.6191
632.153730 59.225 -45.3882
636.734576 58.932 -80.1768
641.348617 58.041 -127.0869
645.996094 56.303 164.8350
650.677248 53.770 83.2827
655.392323 51.525 94.2808
660.141566 51.938 111.4839
664.925224 55.068 101.4302
669.743546 58.184 84.0737
674.596784 60.126 56.6665
679.485191 61.173 30.3511
684.409020 62.109 8.9434
689.368530 63.082 -14.5820
694.363979 63.494 -44.8037
699.395626 63.008 -78.3008
704.463736 61.671 -112.6245
709.568570 59.708 -148.5264
714.710396 57.197 172.8711
719.889483 54.315 135.2793
725.106099 52.143 97.0137
730.360516 51.349 68.9570
735.653010 51.680 155.9272
740.983855 53.134 128.6421
746.353329 54.717 108.2104
751.761713 56.226 107.7876
757.209288 57.686 92.8042
762.696339 59.128 78.2461
768.223151 60.468 59.9951
773.790013 61.053 35.0337
779.397214 60.573 9.3135
785.045047 58.972 -9.6079
790.733808 57.174 -1.7227
796.463791 57.034 19.1919
802.235296 58.161 11.3013
808.048623 59.270 -4.6509
813.904077 59.816 -25.3354
819.801961 59.610 -48.7935
825.742584 58.841 -74.7017
831.726255 57.671 -107.1421
837.753287 56.081 -149.3740
843.823992 54.952 171.2153
849.938689 56.363 162.2920
856.097695 58.761 126.5132
862.301332 59.832 84.9775
868.549922 59.695 58.7383
874.843793 60.195 50.5015
881.183272 61.535 34.9316
887.568689 62.208 10.0430
894.000378 61.969 -12.6484
900.478673 61.624 -29.9429
907.003913 61.526 -51.4717
913.576437 60.856 -83.8296
920.196588 59.353 -125.3647
926.864712 57.508 168.7822
933.581156 55.796 87.6543
940.346270 54.452 45.9219
947.160407 53.737 35.0479
954.023921 54.148 33.0747
960.937172 55.343 24.1250
967.900519 56.640 11.9106
974.914325 57.402 -9.2866
981.978956 57.035 -31.2314
989.094780 56.618 41.7598
996.262169 57.485 40.9775
1003.481495 58.821 23.7842
1010.753136 59.685 6.0645
1018.077470 59.693 -10.2163
1025.454879 59.328 -18.7803
1032.885748 59.190 -24.7212
1040.370463 58.934 -37.2124
1047.909417 58.567 -39.1396
1055.503000 59.399 -21.8726
1063.151610 61.067 -30.2100
1070.855645 62.092 -53.5405
1078.615506 61.663 -81.7769
1086.431599 59.626 -100.8828
1094.304330 56.764 -104.2046
1102.234110 53.921 -111.9707
1110.221353 51.443 -119.5825
1118.266475 50.537 -29.2114
1126.369895 52.175 7.4932
1134.532035 54.083 -12.0884
1142.753322 55.583 -19.2534
1151.034184 57.943 -10.5269
1159.375052 60.383 -30.7354
1167.776361 61.361 -67.5225
1176.238550 60.299 -108.4067
1184.762060 58.321 -48.6177
1193.347334 57.350 -14.4609
1201.994821 56.992 -46.9312
1210.704971 55.863 -75.6821
1219.478238 53.506 -89.8096
1228.315080 51.255 -73.1616
1237.215957 50.676 -74.8638
1246.181334 50.831 -108.9893
1255.211678 52.731 104.0889
1264.307459 56.236 60.7188
1273.469152 59.125 34.2783
1282.697235 60.323 3.8066
1291.992188 60.179 -17.9829
1301.354495 59.929 -30.7969
1310.784647 60.242 -39.9712
1320.283132 61.202 -48.5103
1329.850448 62.041 -66.5498
1339.487093 61.972 -91.5015
1349.193569 60.697 -117.5356
1358.970381 58.710 -125.9546
1368.818041 57.326 -91.8105
1378.737061 56.078 -90.8535
1388.727958 55.078 -66.9453
1398.791253 55.769 -67.2441
1408.927471 57.090 -83.3584
1419.137140 58.426 -88.7026
1429.420793 59.860 -87.9951
1439.778965 60.386 -123.6982
1450.212197 59.452 -176.0537
1460.721033 58.383 27.4336
1471.306019 58.665 -33.0093
1481.967709 58.783 -71.7305
1492.706658 57.793 -84.8330
1503.523426 56.295 -78.9409
1514.418576 54.921 -89.0396
1525.392678 53.828 -101.4390
1536.446302 53.615 -71.3354
1547.580025 55.160 -38.1694
1558.794428 57.340 -44.9834
1570.090095 59.618 -52.1279
1581.467615 61.863 -62.5562
1592.927581 63.680 -79.7104
1604.470591 64.899 -99.8916
1616.097246 65.417 -122.9033
1627.808153 65.028 -147.0288
1639.603922 63.854 -166.6499
1651.485168 62.387 176.0811
1663.452510 60.560 157.7461
1675.506573 58.679 141.8345
1687.647984 58.163 125.7642
1699.877377 58.901 -108.1030
1712.195390 59.686 -134.6318
1724.602663 61.071 -148.4219
1737.099845 62.697 -175.8188
1749.687587 62.966 142.6357
1762.366544 61.130 102.9692
1775.137379 57.624 86.9941
1788.000756 54.386 15.6719
1800.957346 54.285 -95.3276
1814.007826 55.777 -123.6348
1827.152874 55.998 -154.3452
1840.393177 54.794 -165.5283
1853.729425 54.015 -164.4219
1867.162312 54.893 -166.9160
1880.692540 56.544 -173.8857
1894.320813 58.005 -161.1611
1908.047843 58.899 -174.2769
1921.874344 59.374 158.2266
1935.801038 59.660 124.1885
1949.828650 59.583 76.3223
1963.957912 59.225 -72.8452
1978.189561 58.740 -160.2695
1992.524338 57.538 160.4873
2006.962991 56.109 143.5786
2021.506272 56.287 137.7065
2036.154940 57.452 115.1260
2050.909758 57.629 88.4795
2065.771495 57.846 63.5117
2080.740927 59.617 3.4717
2095.818833 61.363 -67.1587
2111.006001 62.132 -122.3687
2126.303220 62.132 -168.2588
2141.711290 60.993 151.7764
2157.231013 58.732 141.5547
2172.863198 56.442 169.4766
2188.608660 55.759 178.1855
2204.468221 57.472 -174.5352
2220.442706 59.427 171.0732
2236.532950 60.366 149.0107
2252.739789 60.537 127.6250
2269.064070 59.566 104.8979
2285.506644 57.510 90.8423
2302.068367 56.355 137.1123
2318.750104 57.281 161.2783
2335.552723 58.216 138.5728
2352.477101 58.280 111.9536
2369.524119 57.944 112.9194
2386.694668 57.981 175.7051
2403.989641 58.279 162.6123
2421.409941 59.275 152.7817
2438.956476 60.241 132.8271
2456.630160 60.281 108.3535
2474.431915 60.039 93.4341
2492.362668 61.271 148.3008
2510.423356 63.152 147.4355
2528.614918 63.763 117.2666
2546.938304 62.978 89.5317
2565.394469 61.045 71.8184
2583.984375 58.770 71.8389
2602.708991 57.302 74.2651
2621.569293 56.345 70.5239
2640.566265 55.797 75.0054
2659.700897 55.894 74.5103
2678.974186 56.370 83.7466
2698.387137 57.252 88.6987
2717.940763 58.288 83.3403
2737.636082 59.364 73.0093
2757.474121 59.357 47.9194
2777.455915 58.296 26.5723
2797.582506 58.138 104.3843
2817.854942 59.578 98.9912
2838.274281 60.780 67.6870
2858.841586 60.298 40.1284
2879.557931 58.798 58.3237
2900.424394 58.101 77.1831
2921.442065 57.846 60.0161
2942.612039 57.309 38.3647
2963.935418 56.791 15.0225
2985.413316 56.542 6.6992
3007.046852 56.603 96.2979
3028.837153 56.685 68.8833
3050.785356 56.040 68.8364
3072.892604 55.667 90.4082
3095.160050 56.048 83.1167
3117.588856 56.119 67.9004
3140.180190 55.984 60.0288
3162.935230 56.148 49.6533
3185.855163 55.831 30.9575
3208.941182 54.945 20.6221
3232.194493 54.150 32.6958
3255.616307 54.068 41.9585
3279.207844 53.707 66.6440
3302.970336 53.032 86.2236
3326.905021 52.949 83.7178
3351.013146 53.140 73.1533
3375.295969 53.226 60.8643
3399.754755 53.620 64.6191
3424.390779 54.596 66.9766
3449.205326 55.135 46.3301
3474.199690 54.827 23.3691
3499.375173 54.090 8.3760
3524.733088 53.107 12.9937
3550.274757 51.838 7.9541
3576.001511 51.069 179.0596
3601.914692 52.252 147.4268
3628.015651 53.859 114.2715
3654.305748 54.240 79.4463
3680.786354 53.439 52.3320
3707.458849 52.024 113.3501
3734.324624 51.240 123.2334
3761.385080 52.250 147.0400
3788.641627 54.381 158.4805
3816.095686 56.173 144.5903
3843.748688 57.069 128.0103
3871.602076 57.988 126.0083
3899.657300 59.218 117.8750
3927.915825 59.577 100.9219
3956.379122 59.214 92.7109
3985.048676 58.902 87.3203
4013.925981 58.676 82.9058
4043.012544 58.636 78.4941
4072.309879 58.782 75.6870
4101.819515 59.292 78.2627
4131.542990 59.762 71.3735
4161.481854 59.873 67.3032
4191.637667 59.915 58.8706
4222.012001 59.642 48.8608
4252.606441 59.188 41.5908
4283.422580 58.611 34.6797
4314.462026 57.976 30.0508
4345.726396 57.438 24.6143
4377.217321 56.908 20.5835
4408.936442 56.682 22.7163
4440.885413 56.872 22.1357
4473.065899 56.223 9.4233
4505.479579 55.065 11.8315
4538.128141 54.887 16.8809
4571.013288 54.650 3.0317
4604.136735 53.678 -7.1377
4637.500207 52.620 -6.5239
4671.105446 52.245 2.1587
4704.954201 52.310 -5.7583
4739.048239 51.711 -21.7305
4773.389336 50.584 96.6235
4807.979283 50.158 94.7339
4842.819883 50.572 86.0005
4877.912952 51.420 90.6958
4913.260320 52.128 90.6973
4948.863830 52.463 79.8691
4984.725337 53.241 103.6196
5020.846712 54.542 106.5459
5057.229836 55.282 90.4922
5093.876609 55.061 76.4585
5130.788938 54.394 71.2920
5167.968750 54.015 69.6421
5205.417982 53.954 65.3125
5243.138586 53.786 61.7510
5281.132530 54.259 79.9731
5319.401793 55.303 79.5352
5357.948371 55.798 67.2847
5396.774274 55.755 59.1523
5435.881525 55.541 51.7480
5475.272163 54.982 47.5806
5514.948243 54.615 56.6289
5554.911831 55.416 72.3809
5595.165012 56.810 68.5479
5635.709884 57.387 53.4272
5676.548561 57.182 46.4951
5717.683172 57.303 38.6841
5759.115861 56.932 20.9385
5800.848789 55.793 19.1177
5842.884130 55.055 32.9453
5885.224077 54.497 31.1470
5927.870837 53.793 29.3130
5970.826633 52.998 29.8921
6014.093704 52.161 29.5273
6057.674306 52.045 45.4653
6101.570711 52.994 66.8555
6145.785208 54.194 60.3691
6190.320101 54.846 51.7446
6235.177712 55.115 48.6338
6280.360380 55.081 41.4805
6325.870460 54.425 39.7739
6371.710325 53.839 36.7959
6417.882365 53.831 33.5273
6464.388986 53.977 35.3066
6511.232613 53.875 51.0825
6558.415689 53.518 47.8218
6605.940673 53.366 51.3428
6653.810042 53.846 54.1040
6702.026292 54.193 52.6514
6750.591937 55.067 58.1533
6799.509509 56.045 49.4600
6848.781558 56.302 36.6479
6898.410653 55.823 26.4482
6948.399380 54.942 22.8716
6998.750346 54.523 33.2422
7049.466176 54.915 40.9502
7100.549514 55.357 33.6138
7152.003023 55.236 24.0068
7203.829385 54.579 21.6333
7256.031302 54.444 25.4814
7308.611496 55.123 26.0918
7361.572708 55.763 20.0088
7414.917698 55.566 5.7256
7468.649249 54.804 -5.4292
7522.770160 53.746 -13.6724
7577.283253 52.636 12.6831
7632.191371 52.185 15.8872
7687.497376 51.766 6.5947
7743.204151 51.297 2.3374
7799.314600 51.309 77.4678
7855.831649 52.358 92.8184
7912.758244 53.999 88.2222
7970.097352 55.428 77.5908
8027.851962 56.550 68.9658
8086.025087 57.503 59.9653
8144.619758 58.208 51.6650
8203.639030 58.633 42.1074
8263.085980 58.815 32.5566
8322.963708 58.783 22.3945
8383.275334 58.616 14.8735
8444.024002 58.652 9.2979
8505.212881 58.835 0.7822
8566.845160 58.686 -13.8228
8628.924051 57.742 -29.3750
8691.452792 56.131 -41.0830
8754.434642 54.358 -47.5820
8817.872884 53.037 -37.9531
8881.770826 52.731 -45.1323
8946.131799 53.295 106.1904
9010.959157 54.719 81.4072
9076.256282 55.904 54.7695
9142.026576 55.785 33.1152
9208.273470 55.257 24.5171
9275.000415 55.247 21.1138
9342.210891 55.394 15.8560
9409.908403 55.018 13.5654
9478.096478 54.740 21.9746
9546.778672 54.804 22.4126
9615.958566 54.994 19.3384
9685.639765 55.090 12.3057
9755.825904 55.030 7.0098
9826.520640 55.162 6.1704
9897.727659 55.580 3.5801
9969.450674 55.867 -6.0107
10041.693423 55.648 -16.9980
10114.459673 55.023 -19.5107
10187.753217 54.331 -25.6040
10261.577877 53.368 -32.8994
10335.937500 52.538 -38.9282
10410.835964 52.293 -24.0332
10486.277173 52.878 32.7954
10562.265060 53.512 25.0356
10638.803587 53.651 34.4619
10715.896743 54.273 30.5864
10793.548548 54.756 13.4907
10871.763050 54.366 1.8618
10950.544327 54.032 4.5635
11029.896485 54.382 1.9282
11109.823662 54.323 -8.1719
11190.330024 53.489 -9.7178
11271.419768 53.060 -1.9375
11353.097122 53.373 -1.0659
11435.366344 53.486 -7.1641
11518.231722 53.300 -5.5957
11601.697577 53.001 -6.4839
11685.768261 52.275 -12.6069
11770.448155 51.500 -13.3521
11855.741674 51.025 -10.1206
11941.653265 50.677 -7.6738
12028.187408 50.337 -2.9727
12115.348612 50.579 9.6772
12203.141422 51.252 8.6118
12291.570415 51.518 4.4893
12380.640201 52.093 8.5371
12470.355424 52.982 4.6855
12560.720760 53.286 -3.1167
12651.740920 53.321 -4.2983
12743.420650 53.412 -10.5938
12835.764729 53.019 -22.7480
12928.777972 52.051 -31.6880
13022.465227 51.032 -30.2461
13116.831378 50.298 -9.5361
13211.881345 50.793 18.0537
13307.620084 52.357 17.9473
13404.052584 53.619 7.2485
13501.183875 54.119 -5.9897
13599.019019 53.976 -17.8330
13697.563116 53.133 -29.0142
13796.821305 51.793 -32.9243
13896.798760 50.806 -29.8398
13997.500692 50.190 -30.2285
14098.932352 49.797 -25.7080
14201.099028 49.891 -22.6704
14304.006046 50.000 -25.5093
14407.658770 50.094 -25.0688
14512.062604 50.093 -29.7031
14617.222992 49.810 -36.1162
14723.145416 49.383 -40.8252
14829.835397 48.790 -46.3940
14937.298497 47.986 -50.4790
15045.540320 47.263 -52.9248
15154.566507 46.419 -59.1304
15264.382743 45.118 -61.6118
15374.994752 43.702 -58.2905
15486.408302 42.678 -43.1436
15598.629201 42.960 -19.2812
15711.663298 43.742 -21.3789
15825.516487 44.318 -29.3945
15940.194703 44.260 -43.3076
16055.703925 43.030 -54.9634
16172.050174 41.357 -53.9150
16289.239516 40.390 -53.7266
16407.278061 40.474 -32.9126
16526.171961 41.213 -9.3633
16645.927415 41.728 7.1021
16766.550667 41.747 8.2544
16888.048005 41.609 12.1597
17010.425762 41.945 17.9082
17133.690320 42.489 18.2383
17257.848103 43.296 23.5254
17382.905584 43.785 22.6147
17508.869284 44.022 23.6787
17635.745768 44.338 20.2583
17763.541652 44.731 20.3989
17892.263597 45.051 17.2002
18021.918315 45.162 14.8169
18152.512564 45.492 13.4678
18284.053153 45.965 10.5347
18416.546939 46.322 5.1465
18550.000830 46.418 -2.1611
18684.421783 46.306 -10.9863
18819.816805 45.639 -21.9082
18956.192956 44.254 -29.1455
19093.557344 42.594 -30.0835
19231.917131 41.313 -25.2114
19371.279531 40.636 -19.1729
19511.651807 40.245 -13.7700
19653.041280 40.043 -10.5220
19795.455318 40.055 -13.4429
19938.901348 40.076 -23.3896
