* Measurement data measured by REW V5.31
* Source: Scarlett 2i4 USB, MICROPHONE, R, volume: no control. Timing signal peak level -37.4 dBFS, measurement signal peak level -31.4 dBFS
* Format: 512k Log Swept Sine, 1 sweep at -18.0 dBFS using an acoustic timing reference
* Dated: Apr 24, 2024 6:10:00 PM
* REW Settings:
*  C-weighting compensation: Off
*  Target level: 75.0 dB
* Note: ; Delay -0.0031 ms (-1.1 mm, -0.04 in) using estimated IR delay relative to Acoustic reference played from SPEAKER L with no timing offset
* Measurement: qrd-fr-p1-r
* Smoothing: 1/48 octave
* Frequency Step: 96 ppo
* Start Frequency: 10.093689 Hz
*
* Freq(Hz) SPL(dB) Phase(degrees)
10.093689 17.831 -61.3059
10.166832 17.651 -66.0952
10.240505 17.430 -71.4307
10.314712 17.200 -77.1661
10.389457 16.955 -83.1424
10.464743 16.644 -89.3196
10.540575 16.214 -96.4292
10.616956 15.728 -104.5971
10.693891 15.266 -113.7019
10.771383 14.897 -123.5304
10.849437 14.608 -134.6920
10.928057 14.393 -147.5946
11.007246 14.309 -161.5018
11.087009 14.432 -175.3135
11.167350 14.824 171.4446
11.248273 15.461 158.7116
11.329783 16.237 147.2634
11.411883 17.041 137.4252
11.494578 17.823 128.9400
11.577873 18.626 121.1924
11.661771 19.429 114.2426
11.746277 20.190 108.1090
11.831395 20.886 102.6433
11.917130 21.527 97.4891
12.003487 22.124 92.6689
12.090469 22.684 88.2190
12.178081 23.207 84.0871
12.266329 23.690 80.1058
12.355216 24.140 76.2702
12.444747 24.568 72.5834
12.534926 24.974 69.0127
12.625760 25.356 65.4992
12.717251 25.719 62.0099
12.809406 26.068 58.5080
12.902228 26.402 54.9730
12.995723 26.720 51.3950
13.089895 27.022 47.7419
13.184750 27.308 43.9532
13.280292 27.579 40.0082
13.376526 27.831 35.9497
13.473458 28.062 31.7741
13.571093 28.272 27.3395
13.669434 28.459 22.6996
13.768489 28.620 17.9651
13.868261 28.752 13.0605
13.968756 28.857 7.8154
14.069979 28.931 2.4446
14.171936 28.972 -2.9368
14.274632 28.978 -8.6880
14.378072 28.949 -14.6405
14.482261 28.881 -20.5011
14.587206 28.773 -26.5963
14.692910 28.622 -32.9659
14.799381 28.422 -39.2166
14.906624 28.172 -45.4601
15.014643 27.869 -51.9954
15.123446 27.498 -58.3964
15.233036 27.057 -64.5482
15.343421 26.539 -70.8964
15.454606 25.918 -77.0474
15.566596 25.184 -82.6894
15.679398 24.324 -88.2430
15.793018 23.266 -93.3411
15.907460 21.935 -97.3691
16.022732 20.351 -100.2491
16.138840 18.579 -101.0619
16.255788 16.487 -97.0104
16.373585 14.373 -81.9595
16.492234 13.564 -50.9561
16.611744 14.987 -22.3461
16.732119 17.475 -9.5573
16.853367 19.736 -5.7648
16.975494 21.617 -5.9080
17.098505 23.255 -7.6669
17.222408 24.626 -10.1759
17.347209 25.740 -13.3348
17.472914 26.676 -16.5838
17.599530 27.483 -19.8383
17.727063 28.158 -23.2144
17.855521 28.731 -26.3398
17.984909 29.210 -29.3927
18.115235 29.605 -32.2923
18.246506 29.930 -34.9452
18.378727 30.189 -37.2887
18.511907 30.399 -39.2300
18.646052 30.566 -40.8735
18.781169 30.705 -42.2070
18.917265 30.840 -43.1512
19.054347 30.975 -43.7189
19.192423 31.137 -44.1021
19.331499 31.338 -44.2487
19.471583 31.580 -44.3680
19.612682 31.867 -44.7210
19.754804 32.191 -45.2295
19.897956 32.527 -46.2242
20.042144 32.866 -47.6678
20.187378 33.176 -49.5366
20.333664 33.435 -51.9550
20.481010 33.629 -54.7300
20.629424 33.731 -57.7578
20.778913 33.734 -61.1108
20.929486 33.620 -64.2823
21.081150 33.381 -67.5167
21.233912 33.014 -70.1733
21.387782 32.514 -72.1864
21.542767 31.926 -73.1293
21.698874 31.272 -72.3394
21.856113 30.700 -69.7452
22.014492 30.378 -65.0715
22.174018 30.392 -59.1056
22.334700 30.861 -53.6393
22.496546 31.673 -49.4242
22.659566 32.618 -47.6089
22.823766 33.620 -47.5314
22.989157 34.535 -48.9580
23.155745 35.350 -51.3822
23.323542 36.048 -54.1933
23.492554 36.638 -57.3188
23.662790 37.148 -60.1543
23.834261 37.599 -62.8015
24.006973 38.039 -64.8986
24.180938 38.495 -66.5931
24.356163 39.010 -67.9282
24.532658 39.594 -69.0770
24.710431 40.250 -70.3629
24.889493 40.957 -71.8715
25.069853 41.685 -73.8484
25.251519 42.402 -76.1927
25.434502 43.081 -78.9612
25.618811 43.704 -81.9112
25.804456 44.262 -85.0364
25.991445 44.758 -88.0516
26.179790 45.201 -90.9698
26.369500 45.613 -93.5962
26.560584 46.011 -96.0038
26.753053 46.422 -98.1767
26.946917 46.856 -100.3132
27.142185 47.322 -102.4846
27.338869 47.806 -104.9794
27.536977 48.296 -107.8127
27.736522 48.761 -111.1644
27.937512 49.180 -114.9395
28.139959 49.528 -119.1896
28.343872 49.788 -123.6936
28.549264 49.950 -128.4871
28.756143 50.006 -133.2898
28.964522 49.956 -138.0623
29.174411 49.804 -142.6785
29.385821 49.560 -146.9464
29.598763 49.233 -150.8569
29.813248 48.840 -154.2466
30.029287 48.398 -157.1158
30.246891 47.918 -159.3850
30.466073 47.418 -161.0432
30.686842 46.909 -162.0229
30.909212 46.408 -162.2277
31.133193 45.946 -161.5536
31.358797 45.574 -159.9453
31.586035 45.347 -157.4313
31.814921 45.338 -154.4348
32.045465 45.563 -151.5747
32.277680 46.001 -149.3915
32.511577 46.572 -148.4126
32.747169 47.194 -148.6298
32.984469 47.807 -149.8683
33.223488 48.370 -151.8687
33.464239 48.874 -154.2648
33.706735 49.329 -156.8669
33.950987 49.753 -159.5173
34.197010 50.172 -162.1635
34.444816 50.600 -164.9135
34.694417 51.040 -167.8663
34.945827 51.483 -171.1570
35.199059 51.905 -174.8984
35.454126 52.281 -179.0571
35.711041 52.587 176.4276
35.969818 52.806 171.6474
36.230470 52.930 166.8104
36.493011 52.958 162.0880
36.757455 52.901 157.6124
37.023814 52.775 153.5184
37.292104 52.604 149.9225
37.562338 52.419 146.8441
37.834530 52.249 144.2246
38.108695 52.117 141.9568
38.384846 52.040 139.8794
38.662999 52.027 137.7931
38.943167 52.069 135.4971
39.225365 52.155 132.8597
39.509608 52.264 129.8131
39.795911 52.379 126.3487
40.084289 52.486 122.5078
40.374756 52.582 118.3657
40.667328 52.672 113.9991
40.962020 52.774 109.4193
41.258848 52.905 104.5329
41.557827 53.078 99.1499
41.858972 53.288 93.0279
42.162299 53.514 85.9362
42.467824 53.721 77.7145
42.775564 53.866 68.2999
43.085533 53.914 57.7251
43.397749 53.835 46.0963
43.712227 53.616 33.5747
44.028983 53.254 20.3395
44.348036 52.757 6.5796
44.669400 52.149 -7.4925
44.993093 51.463 -21.6216
45.319131 50.746 -35.5002
45.647532 50.052 -48.7720
45.978313 49.440 -61.0712
46.311491 48.967 -72.0916
46.647083 48.678 -81.6677
46.985107 48.600 -89.8326
47.325581 48.734 -96.8169
47.668521 49.048 -102.9700
48.013947 49.490 -108.6242
48.361876 49.997 -113.9658
48.712326 50.521 -118.9824
49.065315 51.043 -123.5098
49.420863 51.580 -127.3582
49.778987 52.178 -130.4758
50.139706 52.884 -133.0698
50.503039 53.719 -135.5685
50.869005 54.666 -138.4309
51.237623 55.683 -141.9545
51.608912 56.734 -146.2419
51.982891 57.794 -151.3136
52.359580 58.845 -157.2219
52.739000 59.866 -164.0753
53.121168 60.820 -171.9755
53.506106 61.664 179.0629
53.893833 62.353 169.1350
54.284370 62.848 158.4348
54.677737 63.120 147.2422
55.073955 63.151 135.8939
55.473043 62.932 124.7638
55.875024 62.469 114.2468
56.279917 61.778 104.7219
56.687745 60.896 96.6060
57.098527 59.881 90.2638
57.512287 58.813 85.8884
57.929045 57.788 83.4095
58.348822 56.892 82.4895
58.771642 56.180 82.5574
59.197525 55.669 83.0645
59.626495 55.347 83.6091
60.058573 55.189 83.9016
60.493782 55.163 83.6938
60.932145 55.230 82.7905
61.373685 55.346 81.0868
61.818424 55.468 78.5769
62.266386 55.559 75.3558
62.717593 55.592 71.5682
63.172071 55.552 67.3826
63.629842 55.432 62.9712
64.090930 55.232 58.4829
64.555359 54.960 54.0908
65.023154 54.637 49.9553
65.494339 54.298 46.1388
65.968938 53.988 42.4965
66.446976 53.730 38.6732
66.928478 53.515 34.2258
67.413469 53.300 28.8712
67.901975 53.036 22.5978
68.394021 52.694 15.5734
68.889632 52.280 7.8997
69.388835 51.824 -0.5229
69.891655 51.358 -10.1021
70.398118 50.898 -21.4614
70.908252 50.432 -35.2677
71.422083 49.926 -51.9938
71.939636 49.336 -71.9426
72.460941 48.605 -94.7697
72.986023 47.649 -119.7820
73.514909 46.334 -145.3691
74.047629 44.503 -169.7229
74.584208 42.248 170.6893
75.124676 41.255 -160.8344
75.669061 43.503 -78.3749
76.217390 46.798 -89.2078
76.769692 49.671 -102.8760
77.325997 52.043 -115.9374
77.886333 54.046 -128.1893
78.450730 55.769 -139.9994
79.019216 57.247 -151.7324
79.591822 58.485 -163.5658
80.168577 59.477 -175.4229
80.749512 60.235 172.9207
81.334656 60.790 161.7291
81.924040 61.183 151.0649
82.517696 61.435 140.7382
83.115653 61.531 130.5063
83.717943 61.424 120.3304
84.324598 61.059 110.5114
84.935649 60.396 101.6538
85.551128 59.425 94.8040
86.171066 58.230 91.7415
86.795497 57.127 94.5677
87.424453 56.673 102.4116
88.057967 57.114 109.5560
88.696071 58.114 112.6625
89.338800 59.327 112.4939
89.986185 60.595 109.6621
90.638262 61.802 104.0288
91.295065 62.835 95.7512
91.956626 63.613 85.2452
92.622982 64.063 72.7861
93.294166 64.081 58.7174
93.970214 63.549 43.9509
94.651161 62.383 30.2441
95.337042 60.597 20.2339
96.027894 58.391 16.8727
96.723752 56.205 20.8691
97.424652 54.539 28.5640
98.130631 53.614 36.6816
98.841726 53.396 44.5980
99.557974 53.770 51.2026
100.279412 54.521 54.7087
101.006078 55.358 54.3961
101.738010 56.049 51.0082
102.475245 56.481 45.8292
103.217823 56.628 40.0051
103.965782 56.523 34.4679
104.719161 56.249 29.9952
105.477999 55.949 27.0713
106.242336 55.796 25.2411
107.012212 55.860 22.7650
107.787666 56.023 18.1901
108.568740 56.114 11.6422
109.355474 56.046 3.9264
110.147909 55.804 -4.4952
110.946086 55.399 -13.4012
111.750047 54.866 -22.7635
112.559834 54.240 -33.0524
113.375489 53.518 -44.8047
114.197055 52.715 -58.0902
115.024574 51.928 -73.1146
115.858089 51.289 -90.5625
116.697645 50.850 -110.3209
117.543284 50.627 -130.6299
118.395051 50.642 -149.3840
119.252990 50.873 -165.4220
120.117147 51.267 -178.2587
120.987565 51.848 172.4321
121.864291 52.704 166.0055
122.747370 53.814 160.5033
123.636848 55.016 154.2570
124.532771 56.144 146.9441
125.435187 57.095 138.8416
126.344142 57.823 130.4932
127.259684 58.342 122.5596
128.181860 58.699 115.3075
129.110718 58.928 108.6970
130.046308 59.068 102.8982
130.988677 59.177 97.9867
131.937875 59.303 93.6113
132.893951 59.446 89.2566
133.856956 59.558 84.4779
134.826938 59.555 79.2474
135.803950 59.381 74.3025
136.788041 59.071 70.8193
137.779264 58.764 69.4117
138.777669 58.609 69.4359
139.783309 58.665 69.6464
140.796237 58.892 69.2810
141.816504 59.207 67.8145
142.844165 59.480 64.8351
143.879273 59.579 60.7255
144.921881 59.425 56.5713
145.972045 59.062 54.3391
147.029819 58.778 56.4027
148.095257 59.023 62.1178
149.168417 59.923 66.5002
150.249353 61.157 66.5223
151.338121 62.396 62.6853
152.434780 63.476 56.0475
153.539385 64.328 47.3997
154.651995 64.913 37.1525
155.772667 65.185 25.6465
156.901460 65.101 13.4497
158.038432 64.638 1.4106
159.183644 63.829 -9.4231
160.337154 62.780 -18.2096
161.499023 61.659 -25.3047
162.669312 60.558 -32.7369
163.848081 59.363 -42.3390
165.035392 57.812 -54.3599
166.231306 55.624 -67.6713
167.435887 52.639 -79.8145
168.649196 49.295 -75.6841
169.871298 47.934 58.6760
171.102255 49.533 57.6365
172.342133 51.544 51.6545
173.590995 52.993 43.8125
174.848907 53.939 36.3514
176.115934 54.591 29.2444
177.392143 54.934 19.6052
178.677599 54.723 6.3373
179.972371 53.754 -9.4269
181.276525 52.083 -27.8330
182.590129 50.741 -59.9835
183.913252 51.911 143.0828
185.245964 54.646 117.6831
186.588332 57.086 100.0598
187.940428 58.898 84.6750
189.302322 60.190 70.6875
190.674085 61.028 56.8511
192.055788 61.378 42.7048
193.447503 61.239 29.5371
194.849303 60.705 18.3518
196.261262 59.870 9.0930
197.683452 58.792 2.0676
199.115948 57.617 -1.0759
200.558824 56.640 -1.3433
202.012156 55.868 -5.4648
203.476019 54.782 -14.8220
204.950490 52.942 -25.0427
206.435646 50.520 -29.3821
207.931564 49.414 62.2820
209.438322 51.642 97.8921
210.955998 55.054 100.3196
212.484672 58.112 96.3877
214.024424 60.411 84.9417
215.575333 61.890 70.1646
217.137481 62.621 55.2231
218.710948 62.755 42.5415
220.295818 62.583 33.9912
221.892172 62.350 27.4304
223.500094 62.004 20.4319
225.119668 61.513 16.2820
226.750978 61.150 15.9060
228.394109 60.962 13.4158
230.049147 60.677 9.4536
231.716178 60.270 8.0571
233.395289 59.847 7.1365
235.086567 59.312 5.6328
236.790102 58.820 9.1494
238.505980 59.169 21.6299
240.234293 60.790 35.2141
241.975130 62.824 37.0073
243.728581 64.348 27.7144
245.494739 65.077 15.0615
247.273695 65.244 5.6726
249.065542 65.372 1.3457
250.870374 65.728 -3.1965
252.688284 66.122 -10.5583
254.519367 66.382 -19.0818
256.363720 66.417 -29.1763
258.221437 66.031 -41.3435
260.092616 65.022 -53.2739
261.977354 63.387 -59.7659
263.875750 61.562 -55.6729
265.787903 60.397 -45.2561
267.713911 60.344 -36.7888
269.653877 60.974 -33.3782
271.607900 61.599 -36.5061
273.576083 61.941 -41.0938
275.558528 62.361 -41.2285
277.555338 63.232 -41.1345
279.566619 64.235 -48.1831
281.592474 64.827 -61.7974
283.633009 64.606 -79.8452
285.688331 63.314 -97.5918
287.758546 60.989 -106.0181
289.843763 58.338 -89.4922
291.944090 56.902 -67.1360
294.059638 56.784 -65.3567
296.190515 56.759 -68.2900
298.336833 57.019 -60.2122
300.498705 58.449 -43.2341
302.676243 60.337 -42.6628
304.869559 61.533 -55.2754
307.078770 61.680 -70.2510
309.303989 61.256 -75.7424
311.545334 61.530 -66.3557
313.802919 62.737 -65.7097
316.076865 63.790 -77.1584
318.367288 64.225 -90.7146
320.674309 64.179 -102.4412
322.998047 63.883 -112.1013
325.338624 63.510 -120.3137
327.696162 63.217 -126.8481
330.070783 63.217 -131.7610
332.462612 63.482 -139.3625
334.871773 63.555 -152.4272
337.298392 63.059 -166.6433
339.742595 62.172 -175.3286
342.204510 61.486 -179.5969
344.684265 61.164 172.9075
347.181989 60.888 163.3289
349.697813 60.658 155.6519
352.231868 60.829 150.4487
354.784285 61.472 142.2651
357.355198 62.121 127.9951
359.944741 62.317 109.5354
362.553049 61.817 90.3889
365.180258 60.760 76.7791
367.826505 59.772 69.7285
370.491927 59.326 62.6086
373.176665 59.255 52.7668
375.880856 59.118 39.7610
378.604644 58.534 25.1174
381.348169 57.410 14.1233
384.111575 56.263 13.1016
386.895006 55.924 15.8784
389.698607 56.120 9.6812
392.522524 55.943 -1.4021
395.366904 55.631 -1.9993
398.231895 56.343 5.3979
401.117648 57.929 2.2646
404.024312 59.398 -10.7778
406.952038 60.223 -29.6951
409.900981 60.250 -50.9485
412.871292 59.446 -72.0151
415.863128 57.885 -88.4067
418.876643 56.003 -97.2920
421.911996 54.373 -105.8093
424.969344 53.202 -115.0029
428.048847 52.824 -123.2192
431.150666 53.008 -146.3699
434.274961 52.723 173.3228
437.421897 51.483 113.8330
440.591636 49.470 12.1462
443.784345 47.883 -58.8188
447.000189 48.492 -68.3708
450.239337 50.150 -99.8652
453.501956 51.282 -141.7603
456.788219 52.375 -173.7700
460.098294 54.172 162.6548
463.432356 56.355 140.4353
466.790578 58.439 117.9917
470.173135 60.019 92.9802
473.580203 60.754 65.8064
477.011961 60.595 41.0994
480.468586 59.901 22.9878
483.950259 59.222 10.3022
487.457163 58.725 -3.1519
490.989478 58.289 -15.7136
494.547390 58.710 -17.2959
498.131084 60.323 -22.7981
501.740748 61.627 -49.3867
505.376568 61.737 -87.2178
509.038735 60.825 -130.8943
512.727439 59.547 175.4326
516.442874 58.529 112.2830
520.185232 57.860 58.9043
523.954708 57.375 20.6040
527.751500 56.855 -10.3667
531.575805 55.781 -39.9636
535.427822 54.134 -60.1941
539.307753 53.797 -17.3833
543.215800 55.372 -9.7122
547.152165 56.478 -45.0972
551.117055 56.361 -89.7227
555.110677 55.759 -149.7603
559.133237 56.124 125.2173
563.184947 57.854 65.6602
567.266018 59.513 22.0981
571.376661 59.993 -19.0791
575.517092 59.087 -56.1758
579.687526 57.208 -88.7803
583.888181 54.878 -123.7988
588.119275 52.564 -179.4116
592.381030 50.736 51.6577
596.673667 49.605 -6.7524
600.997410 49.278 -35.8965
605.352485 50.155 -17.8564
609.739119 51.334 1.2764
614.157540 52.139 -19.7598
618.607979 53.652 -30.7534
623.090667 55.579 -56.4780
627.605839 56.668 -99.9404
632.153730 56.998 -152.5181
636.734576 57.528 -23.8784
641.348617 58.488 -86.5039
645.996094 59.208 -142.3896
650.677248 59.778 169.7349
655.392323 60.110 125.2100
660.141566 59.464 85.0312
664.925224 57.909 58.2236
669.743546 56.684 43.3516
674.596784 56.411 24.5078
679.485191 56.002 -1.6714
684.409020 54.824 -29.7388
689.368530 53.281 -61.4736
694.363979 52.770 99.4219
699.395626 54.389 54.1138
704.463736 56.349 16.8252
709.568570 57.468 -23.9868
714.710396 57.735 -70.7251
719.889483 56.913 -126.3525
725.106099 55.107 -179.0825
730.360516 54.134 152.4707
735.653010 55.063 126.1982
740.983855 55.836 93.1724
746.353329 55.787 70.4478
751.761713 56.074 74.9238
757.209288 57.156 68.0493
762.696339 58.166 49.8374
768.223151 58.905 31.5571
773.790013 59.204 9.5229
779.397214 58.816 -10.0698
785.045047 58.862 22.9014
790.733808 60.177 24.5098
796.463791 61.128 -4.7769
802.235296 60.781 -36.7085
808.048623 59.474 -56.6938
813.904077 58.497 -47.8379
819.801961 58.122 -65.4204
825.742584 57.392 -96.6855
831.726255 56.574 -129.3564
837.753287 56.407 -164.0449
843.823992 57.409 163.7690
849.938689 59.203 134.7529
856.097695 60.927 106.4404
862.301332 61.960 77.4536
868.549922 62.130 50.8525
874.843793 62.125 36.0093
881.183272 63.110 34.9761
887.568689 64.403 16.9702
894.000378 64.731 -12.6362
900.478673 63.742 -42.6157
907.003913 61.582 -65.7290
913.576437 59.001 -81.4160
920.196588 57.262 -104.0776
926.864712 57.291 -146.7441
933.581156 58.424 147.8115
940.346270 59.171 93.3452
947.160407 59.433 58.5688
954.023921 59.556 33.6978
960.937172 59.276 13.0332
967.900519 58.553 -1.6812
974.914325 57.524 -14.2827
981.978956 56.212 -20.3921
989.094780 55.560 -13.5303
996.262169 56.528 19.6167
1003.481495 58.736 27.7402
1010.753136 60.800 14.0659
1018.077470 62.029 -4.1978
1025.454879 62.058 -24.8228
1032.885748 61.073 -38.7041
1040.370463 60.099 -42.3330
1047.909417 60.015 -44.1157
1055.503000 60.195 -58.3721
1063.151610 59.794 -78.7646
1070.855645 58.446 -102.2061
1078.615506 56.274 -92.5435
1086.431599 55.338 -30.4937
1094.304330 57.021 -23.4082
1102.234110 59.143 -39.0576
1110.221353 59.884 -73.6055
1118.266475 58.907 -114.0122
1126.369895 57.178 60.0771
1134.532035 56.655 5.3374
1142.753322 57.405 -17.3604
1151.034184 58.156 -38.3789
1159.375052 58.251 -59.4629
1167.776361 58.028 -80.6123
1176.238550 58.225 -92.2559
1184.762060 59.894 -26.4941
1193.347334 61.976 -50.6445
1201.994821 63.084 -92.5098
1210.704971 62.866 -141.3970
1219.478238 61.286 162.8525
1228.315080 58.972 109.4121
1237.215957 58.426 79.8359
1246.181334 59.574 42.7554
1255.211678 59.870 3.2524
1264.307459 58.921 -27.3442
1273.469152 57.160 -37.3862
1282.697235 56.092 -30.9512
1291.992188 57.022 -18.5498
1301.354495 59.174 -10.7266
1310.784647 60.756 -28.6035
1320.283132 61.281 -48.7090
1329.850448 61.422 -65.3018
1339.487093 61.427 -71.7939
1349.193569 61.771 -58.9419
1358.970381 62.259 -73.1963
1368.818041 62.587 -89.3018
1378.737061 62.697 -111.1450
1388.727958 61.613 -138.4067
1398.791253 59.568 -145.9746
1408.927471 57.924 -117.5679
1419.137140 56.379 -128.7979
1429.420793 54.535 -122.7891
1439.778965 53.442 -107.3945
1450.212197 53.549 -89.1123
1460.721033 54.500 -94.1450
1471.306019 55.096 -114.7725
1481.967709 55.595 -142.0356
1492.706658 56.228 150.6416
1503.523426 57.404 21.5239
1514.418576 58.296 -25.8364
1525.392678 58.512 -49.2070
1536.446302 58.560 -65.8203
1547.580025 58.439 -77.8486
1558.794428 59.121 -78.9346
1570.090095 60.689 -80.5771
1581.467615 61.832 -95.4160
1592.927581 62.275 -111.3955
1604.470591 62.651 -124.1553
1616.097246 62.840 -140.2549
1627.808153 62.459 -153.1499
1639.603922 62.219 -160.2832
1651.485168 61.994 -176.0308
1663.452510 61.320 167.4150
1675.506573 60.631 148.9399
1687.647984 59.567 121.5195
1699.877377 57.487 88.6812
1712.195390 55.532 23.9863
1724.602663 56.771 -113.8018
1737.099845 58.771 -151.7568
1749.687587 58.926 169.5684
1762.366544 58.063 139.0371
1775.137379 57.594 95.4873
1788.000756 57.161 -81.1641
1800.957346 56.911 -138.2363
1814.007826 56.917 -174.3779
1827.152874 56.782 154.0039
1840.393177 57.245 124.2573
1853.729425 57.593 -121.7812
1867.162312 57.113 -152.9409
1880.692540 56.041 178.4858
1894.320813 55.016 162.3359
1908.047843 54.420 148.0054
1921.874344 53.736 134.2104
1935.801038 53.118 119.4536
1949.828650 52.769 100.2197
1963.957912 53.254 76.8633
1978.189561 54.527 -24.5972
1992.524338 55.158 -149.0205
2006.962991 54.612 179.7202
2021.506272 54.554 167.0024
2036.154940 55.732 148.0312
2050.909758 57.557 126.3389
2065.771495 59.433 85.2388
2080.740927 60.353 20.7817
2095.818833 60.206 -47.4009
2111.006001 60.115 -100.6465
2126.303220 59.824 -139.8262
2141.711290 59.525 -155.6797
2157.231013 60.604 -171.2090
2172.863198 61.641 154.1934
2188.608660 61.251 112.7480
2204.468221 60.076 -167.7168
2220.442706 59.922 -155.7334
2236.532950 60.700 177.9521
2252.739789 61.605 154.0195
2269.064070 62.125 129.8516
2285.506644 62.063 106.3174
2302.068367 61.214 81.3008
2318.750104 59.386 61.7090
2335.552723 57.463 41.9092
2352.477101 56.298 176.9238
2369.524119 56.549 152.8125
2386.694668 57.326 132.2725
2403.989641 57.905 121.6816
2421.409941 58.770 143.5234
2438.956476 60.337 137.0391
2456.630160 61.285 111.8047
2474.431915 60.681 85.3369
2492.362668 58.826 70.5986
2510.423356 57.291 78.2754
2528.614918 57.621 87.8398
2546.938304 58.848 79.1230
2565.394469 59.979 59.1562
2583.984375 60.114 26.5254
2602.708991 59.041 -13.1172
2621.569293 57.429 -98.2822
2640.566265 55.419 114.8516
2659.700897 53.912 101.1816
2678.974186 54.137 93.2412
2698.387137 54.335 72.9727
2717.940763 54.023 69.4092
2737.636082 54.669 103.0576
2757.474121 56.093 93.7725
2777.455915 57.076 63.1445
2797.582506 57.642 26.8066
2817.854942 58.657 155.0381
2838.274281 59.386 113.5186
2858.841586 58.610 79.1650
2879.557931 57.285 70.9072
2900.424394 56.933 92.3486
2921.442065 57.261 99.9268
2942.612039 58.597 97.2979
2963.935418 59.698 69.0830
2985.413316 59.209 38.1982
3007.046852 58.424 130.4590
3028.837153 58.809 119.3486
3050.785356 58.858 92.9883
3072.892604 58.374 74.3555
3095.160050 57.875 64.7529
3117.588856 57.973 73.2197
3140.180190 59.196 76.2715
3162.935230 60.112 56.7402
3185.855163 59.353 33.1748
3208.941182 57.372 17.2266
3232.194493 55.222 16.6191
3255.616307 54.104 54.8271
3279.207844 54.586 53.6416
3302.970336 55.139 46.3867
3326.905021 54.940 57.5732
3351.013146 54.887 53.7793
3375.295969 54.710 41.3242
3399.754755 54.108 48.9590
3424.390779 54.024 49.1191
3449.205326 54.686 40.0742
3474.199690 55.358 18.6289
3499.375173 55.619 -17.2393
3524.733088 55.780 -176.8594
3550.274757 55.584 105.9033
3576.001511 54.987 83.4648
3601.914692 55.279 117.4473
3628.015651 56.575 108.1660
3654.305748 57.117 82.4619
3680.786354 56.502 60.5225
3707.458849 55.183 47.5820
3734.324624 53.958 49.3291
3761.385080 53.370 56.6904
3788.641627 53.297 69.4990
3816.095686 53.786 80.4385
3843.748688 54.793 78.5830
3871.602076 55.842 75.4033
3899.657300 56.961 79.6670
3927.915825 57.929 75.2031
3956.379122 57.761 59.0605
3985.048676 56.568 46.4648
4013.925981 55.249 48.1201
4043.012544 55.097 62.4609
4072.309879 55.523 62.6729
4101.819515 55.730 60.5889
4131.542990 56.318 61.6426
4161.481854 57.589 63.3672
4191.637667 58.541 51.4053
4222.012001 58.147 36.5361
4252.606441 57.340 34.5684
4283.422580 57.005 34.2266
4314.462026 56.771 29.4600
4345.726396 56.191 19.9561
4377.217321 55.378 19.5381
4408.936442 55.349 32.3965
4440.885413 55.491 23.3066
4473.065899 54.885 20.1094
4505.479579 55.042 45.2031
4538.128141 56.047 40.2139
4571.013288 56.112 22.2168
4604.136735 55.190 17.3760
4637.500207 54.870 27.3447
4671.105446 54.999 18.8125
4704.954201 54.504 10.8945
4739.048239 54.270 23.8604
4773.389336 55.052 27.1240
4807.979283 55.616 12.0635
4842.819883 55.374 -4.9053
4877.912952 54.427 -17.3730
4913.260320 53.615 -12.1094
4948.863830 53.651 -25.1348
4984.725337 52.928 -54.6592
5020.846712 51.195 84.6953
5057.229836 50.255 71.7881
5093.876609 50.514 61.6260
5130.788938 51.190 63.1924
5167.968750 52.697 78.9541
5205.417982 54.236 64.3037
5243.138586 54.850 51.7266
5281.132530 55.305 84.4512
5319.401793 55.905 75.3467
5357.948371 56.091 62.6494
5396.774274 56.732 65.5234
5435.881525 57.481 53.3262
5475.272163 57.208 35.3945
5514.948243 56.387 39.3652
5554.911831 56.137 50.6260
5595.165012 56.551 48.0195
5635.709884 57.399 42.8145
5676.548561 57.962 29.4004
5717.683172 57.654 14.1416
5759.115861 56.758 3.6396
5800.848789 55.665 1.2549
5842.884130 54.885 8.4434
5885.224077 55.061 12.5088
5927.870837 55.510 3.4180
5970.826633 55.275 -9.5127
6014.093704 54.681 -13.0508
6057.674306 53.857 -22.5967
6101.570711 52.608 -9.9414
6145.785208 51.668 4.9482
6190.320101 51.272 0.7744
6235.177712 51.739 18.4541
6280.360380 52.438 39.5859
6325.870460 52.565 41.0566
6371.710325 52.530 45.7100
6417.882365 53.065 43.5518
6464.388986 53.569 36.0508
6511.232613 54.046 35.6143
6558.415689 54.244 26.8057
6605.940673 53.954 20.0908
6653.810042 53.846 30.3682
6702.026292 54.010 29.1748
6750.591937 54.424 39.7178
6799.509509 55.176 40.9805
6848.781558 55.674 33.5068
6898.410653 55.948 32.1436
6948.399380 56.070 23.7998
6998.750346 56.272 23.1406
7049.466176 56.848 24.7061
7100.549514 57.138 16.7100
7152.003023 56.924 9.7246
7203.829385 56.856 6.8145
7256.031302 57.112 10.2256
7308.611496 57.800 21.2148
7361.572708 58.195 7.4971
7414.917698 57.992 -4.3906
7468.649249 57.785 -14.2119
7522.770160 57.229 -22.4902
7577.283253 56.498 -14.0410
7632.191371 55.878 -17.7451
7687.497376 54.914 -17.6416
7743.204151 53.836 -21.8311
7799.314600 52.956 0.9805
7855.831649 53.245 19.8916
7912.758244 54.418 20.8174
7970.097352 55.558 13.4463
8027.851962 56.087 2.2246
8086.025087 56.184 -0.6836
8144.619758 56.763 3.4570
8203.639030 57.367 2.0127
8263.085980 57.381 -10.7393
8322.963708 56.896 -19.7041
8383.275334 56.648 -15.8516
8444.024002 56.914 -15.1113
8505.212881 57.317 -21.3604
8566.845160 57.272 -31.0312
8628.924051 56.843 -40.2314
8691.452792 56.134 -41.4756
8754.434642 55.657 -33.7812
8817.872884 55.788 -31.7568
8881.770826 55.809 -42.3428
8946.131799 55.546 -51.5576
9010.959157 55.410 -42.0684
9076.256282 55.343 -29.6895
9142.026576 54.440 -47.6836
9208.273470 52.904 -62.0508
9275.000415 51.558 -49.6699
9342.210891 50.934 -19.2861
9409.908403 51.395 -0.4346
9478.096478 53.396 25.4199
9546.778672 55.637 27.7295
9615.958566 56.866 9.7129
9685.639765 57.250 -7.7295
9755.825904 57.184 -20.1143
9826.520640 57.066 -21.8330
9897.727659 57.203 -28.3496
9969.450674 57.027 -39.6357
10041.693423 56.365 -47.9043
10114.459673 55.731 -50.2148
10187.753217 55.139 -54.7803
10261.577877 54.336 -63.0889
10335.937500 53.160 -69.9033
10410.835964 52.603 -37.1445
10486.277173 53.556 2.8311
10562.265060 54.377 -7.9238
10638.803587 54.260 -14.2559
10715.896743 54.116 -14.7549
10793.548548 54.242 -22.2939
10871.763050 53.910 -32.0889
10950.544327 53.601 -21.6670
11029.896485 54.029 -12.2842
11109.823662 54.236 -20.4854
11190.330024 54.203 -23.6738
11271.419768 54.674 -23.3027
11353.097122 55.164 -32.7422
11435.366344 54.917 -45.4863
11518.231722 54.260 -51.7930
11601.697577 53.679 -55.5078
11685.768261 52.917 -62.0566
11770.448155 51.921 -63.8535
11855.741674 51.093 -54.5811
11941.653265 50.605 -44.4326
12028.187408 50.692 -35.6826
12115.348612 51.415 -32.4072
12203.141422 52.318 -37.4219
12291.570415 52.477 -50.3428
12380.640201 51.619 -60.8516
12470.355424 50.268 -62.7197
12560.720760 48.978 -59.0605
12651.740920 48.565 -38.6748
12743.420650 49.829 -18.0000
12835.764729 51.502 -18.9893
12928.777972 52.943 -19.9121
13022.465227 53.911 -28.7412
13116.831378 54.133 -39.8652
13211.881345 53.947 -46.6240
13307.620084 53.687 -47.2891
13404.052584 53.349 -49.6582
13501.183875 53.089 -48.9805
13599.019019 53.421 -42.9844
13697.563116 54.026 -44.3740
13796.821305 54.492 -52.0889
13896.798760 54.665 -61.5947
13997.500692 54.328 -72.6445
14098.932352 53.293 -80.7334
14201.099028 52.047 -82.7578
14304.006046 50.899 -84.9609
14407.658770 49.979 -73.2314
14512.062604 50.193 -61.8125
14617.222992 51.011 -62.2676
14723.145416 51.752 -68.1035
14829.835397 52.055 -77.6611
14937.298497 51.785 -87.7080
15045.540320 51.103 -96.0352
15154.566507 50.150 -102.7656
15264.382743 49.023 -104.4492
15374.994752 48.121 -104.4082
15486.408302 47.355 -106.2861
15598.629201 46.747 -101.8145
15711.663298 46.294 -101.3350
15825.516487 45.748 -103.0879
15940.194703 45.246 -105.3154
16055.703925 44.711 -104.3789
16172.050174 44.663 -94.0049
16289.239516 44.891 -99.3311
16407.278061 44.745 -108.0996
16526.171961 44.437 -121.2480
16645.927415 43.625 -142.7627
16766.550667 42.658 -141.6055
16888.048005 42.988 -10.4287
17010.425762 44.313 -29.8857
17133.690320 45.255 -48.6758
17257.848103 45.577 -61.2578
17382.905584 45.258 -74.6768
17508.869284 44.061 -80.1367
17635.745768 42.907 -73.4922
17763.541652 42.559 -60.7627
17892.263597 42.969 -56.4043
18021.918315 43.703 -55.8174
18152.512564 44.612 -55.0146
18284.053153 45.543 -54.3770
18416.546939 46.378 -58.5508
18550.000830 46.912 -67.1846
18684.421783 47.194 -77.7148
18819.816805 47.019 -91.1582
18956.192956 46.218 -103.4961
19093.557344 44.874 -114.3027
19231.917131 43.016 -122.1621
19371.279531 40.836 -124.3330
19511.651807 38.911 -112.8467
19653.041280 38.086 -99.0889
19795.455318 37.877 -99.8779
19938.901348 37.583 -106.2539
