* Measurement data measured by REW V5.31
* Source: Scarlett 2i4 USB, MICROPHONE, R, volume: no control. Timing signal peak level -36.3 dBFS, measurement signal peak level -30.7 dBFS
* Format: 512k Log Swept Sine, 1 sweep at -18.0 dBFS using an acoustic timing reference
* Dated: Apr 24, 2024 6:22:27 PM
* REW Settings:
*  C-weighting compensation: Off
*  Target level: 75.0 dB
* Note: ; Delay -0.0029 ms (-0.98 mm, -0.04 in) using estimated IR delay relative to Acoustic reference played from SPEAKER L with no timing offset
* Measurement: qrd-2nd-p1-r
* Smoothing: 1/48 octave
* Frequency Step: 96 ppo
* Start Frequency: 10.093689 Hz
*
* Freq(Hz) SPL(dB) Phase(degrees)
10.093689 17.121 -3.6403
10.166832 16.910 -7.4797
10.240505 16.653 -11.6953
10.314712 16.384 -16.1297
10.389457 16.095 -20.6050
10.464743 15.714 -25.0330
10.540575 15.191 -30.0416
10.616956 14.554 -35.6981
10.693891 13.787 -41.8492
10.771383 12.838 -48.2367
10.849437 11.565 -55.6464
10.928057 10.034 -65.4020
11.007246 8.565 -78.4703
11.087009 7.577 -96.0205
11.167350 7.359 -120.9411
11.248273 7.792 -155.2184
11.329783 8.643 174.8013
11.411883 9.716 155.1315
11.494578 10.960 141.1980
11.577873 12.447 129.8389
11.661771 14.004 120.5977
11.746277 15.416 112.8057
11.831395 16.560 105.6090
11.917130 17.508 98.3725
12.003487 18.321 91.4688
12.090469 19.043 85.0219
12.178081 19.689 78.6796
12.266329 20.242 72.0035
12.355216 20.718 65.3967
12.444747 21.136 59.1093
12.534926 21.500 52.7539
12.625760 21.803 46.0634
12.717251 22.056 39.4466
12.809406 22.269 33.1799
12.902228 22.439 26.6965
12.995723 22.566 20.0322
13.089895 22.656 13.5957
13.184750 22.714 7.5187
13.280292 22.735 1.2552
13.376526 22.723 -4.9231
13.473458 22.680 -10.5878
13.571093 22.604 -15.9716
13.669434 22.497 -21.2235
13.768489 22.368 -26.0192
13.868261 22.217 -30.0803
13.968756 22.042 -33.6519
14.069979 21.875 -36.6749
14.171936 21.740 -38.9278
14.274632 21.631 -40.2385
14.378072 21.582 -40.8474
14.482261 21.649 -41.0471
14.587206 21.849 -40.5865
14.692910 22.167 -39.7343
14.799381 22.591 -39.1753
14.906624 23.131 -38.9607
15.014643 23.762 -38.9451
15.123446 24.420 -39.5223
15.233036 25.074 -40.7861
15.343421 25.726 -42.4426
15.454606 26.342 -44.4577
15.566596 26.897 -46.8992
15.679398 27.396 -49.6743
15.793018 27.828 -52.5233
15.907460 28.185 -55.4820
16.022732 28.468 -58.6399
16.138840 28.674 -61.6450
16.255788 28.800 -64.5145
16.373585 28.847 -67.3823
16.492234 28.818 -69.8725
16.611744 28.710 -72.0000
16.732119 28.531 -73.8140
16.853367 28.298 -74.9980
16.975494 28.007 -75.4888
17.098505 27.694 -75.2815
17.222408 27.403 -74.2469
17.347209 27.139 -72.2252
17.472914 26.961 -69.5098
17.599530 26.922 -66.3052
17.727063 27.015 -62.6791
17.855521 27.231 -59.3154
17.984909 27.573 -56.3387
18.115235 27.993 -53.8746
18.246506 28.432 -52.1143
18.378727 28.883 -50.9521
18.511907 29.314 -50.2193
18.646052 29.703 -49.8893
18.781169 30.055 -49.8279
18.917265 30.368 -49.8326
19.054347 30.643 -49.9449
19.192423 30.895 -50.0336
19.331499 31.130 -50.0524
19.471583 31.358 -50.0446
19.612682 31.590 -50.0040
19.754804 31.829 -49.9405
19.897956 32.078 -49.9688
20.042144 32.339 -50.0695
20.187378 32.602 -50.3074
20.333664 32.866 -50.7231
20.481010 33.122 -51.2786
20.629424 33.363 -51.9786
20.778913 33.588 -52.8038
20.929486 33.792 -53.6627
21.081150 33.975 -54.5743
21.233912 34.143 -55.4344
21.387782 34.297 -56.2377
21.542767 34.448 -56.9520
21.698874 34.601 -57.5443
21.856113 34.765 -58.0433
22.014492 34.948 -58.4454
22.174018 35.152 -58.7817
22.334700 35.384 -59.0975
22.496546 35.643 -59.4022
22.659566 35.930 -59.7565
22.823766 36.244 -60.1554
22.989157 36.583 -60.6503
23.155745 36.946 -61.2299
23.323542 37.329 -61.9414
23.492554 37.731 -62.7671
23.662790 38.147 -63.7527
23.834261 38.573 -64.8712
24.006973 39.002 -66.1462
24.180938 39.431 -67.5419
24.356163 39.852 -69.0359
24.532658 40.265 -70.5894
24.710431 40.669 -72.1384
24.889493 41.068 -73.6572
25.069853 41.469 -75.0778
25.251519 41.883 -76.4287
25.434502 42.321 -77.6724
25.618811 42.795 -78.9507
25.804456 43.309 -80.2522
25.991445 43.861 -81.8204
26.179790 44.447 -83.6302
26.369500 45.047 -85.9026
26.560584 45.648 -88.5693
26.753053 46.227 -91.7289
26.946917 46.768 -95.2687
27.142185 47.259 -99.2076
27.338869 47.688 -103.3787
27.536977 48.050 -107.7935
27.736522 48.344 -112.2713
27.937512 48.570 -116.7974
28.139959 48.733 -121.2899
28.343872 48.840 -125.6702
28.549264 48.896 -129.9604
28.756143 48.909 -134.0949
28.964522 48.882 -138.1141
29.174411 48.815 -142.0280
29.385821 48.705 -145.8240
29.598763 48.546 -149.5133
29.813248 48.327 -153.0405
30.029287 48.040 -156.2818
30.246891 47.681 -159.1555
30.466073 47.253 -161.3835
30.686842 46.777 -162.7924
30.909212 46.284 -163.1243
31.133193 45.844 -162.2604
31.358797 45.527 -160.3248
31.586035 45.393 -157.5714
31.814921 45.473 -154.7303
32.045465 45.737 -152.2764
32.277680 46.135 -150.5359
32.511577 46.602 -149.6010
32.747169 47.104 -149.3276
32.984469 47.624 -149.6018
33.223488 48.159 -150.3031
33.464239 48.713 -151.4558
33.706735 49.280 -153.0963
33.950987 49.850 -155.2665
34.197010 50.404 -158.0389
34.444816 50.919 -161.3549
34.694417 51.380 -165.1369
34.945827 51.773 -169.2989
35.199059 52.094 -173.6725
35.454126 52.348 -178.1489
35.711041 52.541 177.3395
35.969818 52.683 172.8502
36.230470 52.784 168.4060
36.493011 52.847 163.9842
36.757455 52.870 159.5728
37.023814 52.850 155.1731
37.292104 52.777 150.8324
37.562338 52.649 146.6762
37.834530 52.471 142.8370
38.108695 52.262 139.4427
38.384846 52.050 136.5941
38.662999 51.878 134.2950
38.943167 51.786 132.3442
39.225365 51.792 130.4204
39.509608 51.889 128.2072
39.795911 52.046 125.4788
40.084289 52.228 122.1482
40.374756 52.405 118.2623
40.667328 52.565 113.9459
40.962020 52.714 109.2869
41.258848 52.868 104.2587
41.557827 53.040 98.7224
41.858972 53.229 92.4706
42.162299 53.417 85.2933
42.467824 53.574 77.0411
42.775564 53.662 67.6589
43.085533 53.650 57.1874
43.397749 53.516 45.7426
43.712227 53.251 33.4936
44.028983 52.860 20.6232
44.348036 52.361 7.3156
44.669400 51.783 -6.2358
44.993093 51.168 -19.8176
45.319131 50.559 -33.1898
45.647532 49.998 -46.0815
45.978313 49.518 -58.2001
46.311491 49.146 -69.2577
46.647083 48.901 -79.0197
46.985107 48.805 -87.3773
47.325581 48.876 -94.4203
47.668521 49.114 -100.4437
48.013947 49.487 -105.8208
48.361876 49.940 -110.8002
48.712326 50.426 -115.3777
49.065315 50.933 -119.3553
49.420863 51.494 -122.5520
49.778987 52.165 -125.0459
50.139706 52.983 -127.2495
50.503039 53.936 -129.6902
50.869005 54.982 -132.7062
51.237623 56.084 -136.3618
51.608912 57.235 -140.6390
51.982891 58.437 -145.6746
52.359580 59.672 -151.8029
52.739000 60.884 -159.3717
53.121168 61.997 -168.5222
53.506106 62.934 -179.1198
53.893833 63.637 169.1467
54.284370 64.067 156.6807
54.677737 64.205 143.9426
55.073955 64.047 131.4121
55.473043 63.607 119.5667
55.875024 62.914 108.8527
56.279917 62.013 99.6338
56.687745 60.968 92.1885
57.098527 59.852 86.6033
57.512287 58.732 82.7729
57.929045 57.664 80.5308
58.348822 56.697 79.7472
58.771642 55.887 80.2023
59.197525 55.288 81.4636
59.626495 54.921 82.9180
60.058573 54.762 84.0225
60.493782 54.760 84.4679
60.932145 54.869 84.1301
61.373685 55.046 82.9222
61.818424 55.249 80.7683
62.266386 55.430 77.6919
62.717593 55.550 73.8391
63.172071 55.585 69.4408
63.629842 55.524 64.7448
64.090930 55.369 59.9421
64.555359 55.129 55.2190
65.023154 54.826 50.7389
65.494339 54.490 46.5834
65.968938 54.164 42.6580
66.446976 53.875 38.6588
66.928478 53.620 34.1747
67.413469 53.363 28.9335
67.901975 53.067 22.9071
68.394021 52.717 16.1727
68.889632 52.323 8.6445
69.388835 51.903 -0.0365
69.891655 51.453 -10.4254
70.398118 50.949 -23.0707
70.908252 50.369 -38.5225
71.422083 49.717 -57.2262
71.939636 49.022 -79.7502
72.460941 48.322 -106.0614
72.986023 47.620 -135.5748
73.514909 46.851 -166.7063
74.047629 45.912 161.3347
74.584208 44.802 126.8168
75.124676 43.993 81.9647
75.669061 44.549 13.7729
76.217390 46.676 -41.3231
76.769692 49.295 -72.8606
77.325997 51.732 -94.9688
77.886333 53.841 -112.8738
78.450730 55.638 -128.5978
79.019216 57.155 -143.1423
79.591822 58.403 -157.0374
80.168577 59.381 -170.4707
80.749512 60.100 176.6158
81.334656 60.589 164.4113
81.924040 60.886 152.9655
82.517696 61.018 142.1017
83.115653 60.973 131.5942
83.717943 60.708 121.4276
84.324598 60.174 111.9696
84.935649 59.339 103.9457
85.551128 58.219 98.5526
86.171066 56.953 97.7318
86.795497 55.956 103.5391
87.424453 55.844 113.9351
88.057967 56.706 121.8507
88.696071 58.035 124.5684
89.338800 59.460 123.6498
89.986185 60.850 120.0800
90.638262 62.121 114.0146
91.295065 63.206 105.8223
91.956626 64.074 95.9468
92.622982 64.695 84.4067
93.294166 64.978 71.0936
93.970214 64.791 56.5128
94.651161 64.027 42.0737
95.337042 62.671 29.9058
96.027894 60.846 22.3438
96.723752 58.845 20.6235
97.424652 57.036 23.4202
98.130631 55.672 28.2539
98.841726 54.821 33.8955
99.557974 54.478 39.8890
100.279412 54.622 45.3314
101.006078 55.139 48.5586
101.738010 55.791 48.4183
102.475245 56.337 45.2767
103.217823 56.639 40.4120
103.965782 56.673 35.2200
104.719161 56.509 30.8470
105.477999 56.292 27.9194
106.242336 56.189 26.0009
107.012212 56.259 23.5093
107.787666 56.404 19.2207
108.568740 56.482 13.2979
109.355474 56.432 6.3700
110.147909 56.241 -1.3635
110.946086 55.897 -9.7944
111.750047 55.406 -18.6993
112.559834 54.792 -28.2198
113.375489 54.054 -38.6980
114.197055 53.189 -50.1724
115.024574 52.247 -62.9119
115.858089 51.291 -77.8396
116.697645 50.354 -95.4688
117.543284 49.508 -115.0483
118.395051 48.905 -134.9641
119.252990 48.658 -153.0400
120.117147 48.820 -167.1306
120.987565 49.462 -176.6511
121.864291 50.540 176.4531
122.747370 51.835 169.7512
123.636848 53.129 162.3594
124.532771 54.312 154.4312
125.435187 55.336 146.1313
126.344142 56.173 137.7153
127.259684 56.826 129.6240
128.181860 57.313 122.0830
129.110718 57.646 115.1929
130.046308 57.847 109.1943
130.988677 57.968 104.4080
131.937875 58.106 101.0276
132.893951 58.343 98.2476
133.856956 58.631 94.5754
134.826938 58.835 89.8293
135.803950 58.889 85.1838
136.788041 58.851 81.6650
137.779264 58.822 79.3149
138.777669 58.869 77.5864
139.783309 59.004 76.0413
140.796237 59.225 74.5513
141.816504 59.521 72.6851
142.844165 59.821 69.7402
143.879273 60.013 65.7009
144.921881 60.011 61.1992
145.972045 59.801 57.5959
147.029819 59.544 56.9033
148.095257 59.574 59.5588
149.168417 60.101 62.5432
150.249353 60.998 62.9021
151.338121 62.022 60.2673
152.434780 63.008 55.0322
153.539385 63.853 47.5164
154.651995 64.485 38.0605
155.772667 64.846 27.0369
156.901460 64.879 14.7549
158.038432 64.521 1.7830
159.183644 63.739 -10.8127
160.337154 62.576 -21.8787
161.499023 61.139 -31.1863
162.669312 59.499 -40.1450
163.848081 57.546 -49.9661
165.035392 55.030 -59.0857
166.231306 51.773 -61.3723
167.435887 48.130 -35.5020
168.649196 46.122 28.1726
169.871298 47.378 51.8655
171.102255 49.819 61.3435
172.342133 52.056 62.0945
173.590995 53.743 56.8337
174.848907 54.919 49.9690
176.115934 55.689 42.2708
177.392143 55.993 32.7119
178.677599 55.697 22.1152
179.972371 54.710 11.9739
181.276525 53.035 4.8755
182.590129 51.416 14.8215
183.913252 52.157 75.7607
185.245964 54.947 92.1582
186.588332 57.625 85.8450
187.940428 59.653 74.7861
189.302322 61.064 62.1304
190.674085 61.912 48.5771
192.055788 62.221 34.9204
193.447503 62.052 22.4890
194.849303 61.517 11.9436
196.261262 60.700 3.1404
197.683452 59.662 -3.3657
199.115948 58.590 -5.8496
200.558824 57.826 -5.5959
202.012156 57.400 -9.0808
203.476019 56.841 -18.1250
204.950490 55.724 -30.2998
206.435646 53.866 -44.7478
207.931564 51.491 -62.1428
209.438322 50.510 132.5979
210.955998 52.824 105.8962
212.484672 56.010 96.4622
214.024424 58.506 82.9958
215.575333 60.047 66.5530
217.137481 60.669 50.2610
218.710948 60.544 37.5776
220.295818 60.116 32.2183
221.892172 59.895 30.8354
223.500094 59.860 27.1487
225.119668 59.871 24.9629
226.750978 60.073 24.5762
228.394109 60.248 19.3962
230.049147 59.956 12.0020
231.716178 59.221 9.6174
233.395289 58.541 14.0151
235.086567 58.333 19.7065
236.790102 58.669 24.8127
238.505980 59.656 30.6316
240.234293 61.413 38.7810
241.975130 63.465 39.9338
243.728581 64.997 29.3936
245.494739 65.624 14.3987
247.273695 65.502 2.8022
249.065542 65.229 -1.6199
250.870374 65.315 -4.2163
252.688284 65.665 -9.7161
254.519367 66.003 -17.3311
256.363720 66.123 -27.3196
258.221437 65.801 -39.5249
260.092616 64.848 -51.5913
261.977354 63.256 -58.6970
263.875750 61.386 -56.3977
265.787903 59.955 -47.7278
267.713911 59.586 -36.8123
269.653877 60.224 -28.7065
271.607900 61.123 -29.6704
273.576083 61.791 -34.6011
275.558528 62.506 -35.6479
277.555338 63.635 -35.9749
279.566619 64.772 -45.2314
281.592474 65.342 -61.5806
283.633009 64.986 -82.0190
285.688331 63.435 -101.2046
287.758546 60.769 -105.0605
289.843763 58.021 -77.0786
291.944090 56.956 -59.1597
294.059638 57.165 -59.4504
296.190515 57.276 -63.6997
298.336833 57.370 -60.1829
300.498705 58.381 -46.4180
302.676243 60.017 -43.8286
304.869559 61.121 -55.2378
307.078770 61.205 -69.7366
309.303989 60.824 -72.7231
311.545334 61.436 -57.5212
313.802919 63.012 -56.6238
316.076865 64.261 -69.6743
318.367288 64.801 -84.4951
320.674309 64.846 -97.0979
322.998047 64.649 -107.7703
325.338624 64.317 -117.7166
327.696162 63.897 -126.4434
330.070783 63.604 -132.3254
332.462612 63.638 -138.3125
334.871773 63.699 -149.4548
337.298392 63.331 -162.9614
339.742595 62.598 -172.2275
342.204510 61.991 -177.8423
344.684265 61.646 173.9233
347.181989 61.303 164.0574
349.697813 60.982 156.1182
352.231868 61.030 150.6255
354.784285 61.555 142.5642
357.355198 62.144 128.8660
359.944741 62.368 111.0544
362.553049 61.946 91.5073
365.180258 60.860 75.3740
367.826505 59.496 65.5012
370.491927 58.500 61.5786
373.176665 58.362 58.7429
375.880856 58.602 47.8281
378.604644 58.384 32.1038
381.348169 57.468 18.7312
384.111575 56.206 12.8550
386.895006 55.403 15.5752
389.698607 55.435 16.1289
392.522524 55.558 7.9595
395.366904 55.641 5.6074
398.231895 56.404 7.6772
401.117648 57.648 1.4287
404.024312 58.710 -11.6143
406.952038 59.252 -28.7126
409.900981 59.098 -48.1729
412.871292 58.158 -66.7266
415.863128 56.621 -79.1733
418.876643 55.043 -86.7783
421.911996 53.717 -97.6699
424.969344 52.679 -104.3904
428.048847 52.476 -110.0698
431.150666 52.560 -136.7795
434.274961 51.865 179.6406
437.421897 50.235 113.5518
440.591636 48.186 20.6406
443.784345 47.376 -18.2646
447.000189 48.825 -30.7876
450.239337 50.458 -71.0579
453.501956 51.391 -116.4417
456.788219 52.417 -154.2383
460.098294 54.093 174.1733
463.432356 56.119 146.1602
466.790578 58.136 120.7336
470.173135 59.718 93.9114
473.580203 60.457 65.3088
477.011961 60.236 39.3665
480.468586 59.443 21.6008
483.950259 58.805 10.3684
487.457163 58.487 -3.2559
490.989478 58.117 -18.6008
494.547390 58.212 -23.4314
498.131084 59.552 -23.7864
501.740748 60.881 -47.4871
505.376568 61.039 -84.5227
509.038735 60.115 -126.5894
512.727439 58.832 -177.4277
516.442874 57.809 120.2009
520.185232 56.986 64.3896
523.954708 56.115 24.7896
527.751500 55.148 -4.7627
531.575805 53.811 -30.5615
535.427822 52.307 -44.6387
539.307753 52.559 -2.1597
543.215800 54.502 -0.5088
547.152165 55.737 -34.7080
551.117055 55.594 -79.2676
555.110677 54.952 -148.1938
559.133237 55.780 102.8066
563.184947 57.980 52.5103
567.266018 59.595 11.7148
571.376661 59.760 -28.0396
575.517092 58.405 -61.8618
579.687526 56.020 -87.8032
583.888181 53.300 -115.7554
588.119275 50.882 -158.5977
592.381030 49.690 10.0200
596.673667 49.472 -27.4512
600.997410 49.887 -53.7686
605.352485 51.041 -37.7979
609.739119 52.085 14.5767
614.157540 52.838 -8.5952
618.607979 54.202 -25.7520
623.090667 55.824 -57.0967
627.605839 56.936 -100.8223
632.153730 57.733 -151.0312
636.734576 58.734 -34.3740
641.348617 59.660 -91.4253
645.996094 59.990 -145.4834
650.677248 60.081 169.1909
655.392323 60.253 128.0039
660.141566 59.809 89.3174
664.925224 58.558 60.6904
669.743546 57.278 41.8447
674.596784 56.676 27.2012
679.485191 56.431 7.1533
684.409020 55.791 -16.9595
689.368530 54.528 -43.9307
694.363979 52.864 -53.0762
699.395626 52.868 29.3872
704.463736 55.074 13.6318
709.568570 57.122 -20.5063
714.710396 57.954 -65.9653
719.889483 57.139 -118.6113
725.106099 55.115 -166.1484
730.360516 53.977 162.6772
735.653010 54.870 132.4233
740.983855 55.734 98.9521
746.353329 56.026 76.0181
751.761713 56.895 79.7085
757.209288 58.135 69.0698
762.696339 58.543 45.9409
768.223151 58.374 27.5029
773.790013 58.142 8.5679
779.397214 58.413 2.0532
785.045047 60.010 41.7490
790.733808 61.610 23.8467
796.463791 62.024 -9.3892
802.235296 61.177 -41.6196
808.048623 59.432 -63.3193
813.904077 57.746 -43.8623
819.801961 56.943 -52.1772
825.742584 56.475 -81.2437
831.726255 55.851 -116.7974
837.753287 55.286 -152.1099
843.823992 56.509 178.7290
849.938689 59.014 146.2852
856.097695 61.188 112.4043
862.301332 62.375 78.5249
868.549922 62.390 48.4385
874.843793 62.106 33.9131
881.183272 62.962 31.8594
887.568689 64.133 12.1392
894.000378 64.360 -16.7803
900.478673 63.357 -45.3403
907.003913 61.388 -69.4395
913.576437 58.818 -91.9678
920.196588 56.201 -111.0088
926.864712 55.681 -146.4658
933.581156 57.079 144.1099
940.346270 58.071 88.1953
947.160407 58.442 54.1543
954.023921 58.845 33.5293
960.937172 59.108 14.0913
967.900519 58.729 -4.3188
974.914325 57.829 -18.0400
981.978956 56.780 -27.1294
989.094780 56.054 -33.1519
996.262169 56.905 27.6475
1003.481495 59.236 33.0059
1010.753136 61.214 13.5796
1018.077470 62.292 -6.8135
1025.454879 62.091 -28.3613
1032.885748 60.740 -41.0229
1040.370463 59.462 -43.3643
1047.909417 59.410 -43.2803
1055.503000 60.105 -54.9253
1063.151610 60.470 -76.7729
1070.855645 59.740 -107.4834
1078.615506 57.694 -129.4365
1086.431599 55.912 -10.8057
1094.304330 56.912 -16.3638
1102.234110 59.129 -33.2993
1110.221353 60.159 -67.7217
1118.266475 59.520 -110.1812
1126.369895 58.004 106.9067
1134.532035 57.652 10.7051
1142.753322 58.918 -14.9136
1151.034184 59.889 -42.3579
1159.375052 59.486 -69.1099
1167.776361 58.641 -88.6919
1176.238550 58.752 -98.9688
1184.762060 59.860 -22.9238
1193.347334 61.392 -51.4243
1201.994821 62.626 -91.8701
1210.704971 62.918 -142.1309
1219.478238 61.831 152.9946
1228.315080 59.903 73.9595
1237.215957 58.632 39.3340
1246.181334 58.366 37.2993
1255.211678 58.015 5.2739
1264.307459 57.147 -20.0610
1273.469152 56.035 -20.3247
1282.697235 55.784 -16.6763
1291.992188 56.869 -11.3042
1301.354495 58.949 -8.6021
1310.784647 60.724 -23.9727
1320.283132 61.591 -44.0776
1329.850448 61.755 -61.9062
1339.487093 61.548 -71.0283
1349.193569 61.589 -67.4019
1358.970381 61.750 -81.1904
1368.818041 61.602 -96.2021
1378.737061 61.316 -113.3071
1388.727958 60.091 -135.8940
1398.791253 57.783 -142.0591
1408.927471 55.793 -117.5479
1419.137140 54.741 -121.6489
1429.420793 54.094 -114.0425
1439.778965 54.398 -96.9263
1450.212197 55.355 -89.6792
1460.721033 56.054 -106.3784
1471.306019 55.944 -127.9897
1481.967709 55.792 -155.5620
1492.706658 56.032 135.8130
1503.523426 57.163 22.0620
1514.418576 58.178 -23.7881
1525.392678 58.629 -44.9468
1536.446302 58.942 -62.6924
1547.580025 58.875 -78.9883
1558.794428 59.483 -77.4834
1570.090095 61.130 -76.4531
1581.467615 62.157 -94.8657
1592.927581 62.278 -111.5249
1604.470591 62.416 -122.9106
1616.097246 62.473 -138.9512
1627.808153 62.109 -149.8960
1639.603922 62.173 -153.4878
1651.485168 62.283 -169.5967
1663.452510 61.749 171.5615
1675.506573 60.922 151.8521
1687.647984 59.587 126.4609
1699.877377 57.349 100.3379
1712.195390 55.628 74.1499
1724.602663 57.182 -99.9438
1737.099845 59.209 -143.7661
1749.687587 59.304 174.3062
1762.366544 58.163 141.8408
1775.137379 57.215 102.4058
1788.000756 56.549 -79.2656
1800.957346 56.215 -133.6577
1814.007826 56.014 -165.0835
1827.152874 55.691 169.5420
1840.393177 55.927 153.3296
1853.729425 56.250 -150.5825
1867.162312 56.121 -161.1738
1880.692540 55.719 177.0786
1894.320813 55.193 160.9043
1908.047843 54.767 152.1104
1921.874344 54.861 138.1377
1935.801038 54.953 114.6885
1949.828650 54.633 92.0933
1963.957912 54.558 79.9844
1978.189561 54.693 -46.7896
1992.524338 54.824 -152.3979
2006.962991 54.864 -171.1929
2021.506272 55.429 178.8101
2036.154940 56.451 152.1162
2050.909758 57.919 128.3599
2065.771495 59.416 91.0981
2080.740927 59.976 30.7725
2095.818833 59.796 -38.6997
2111.006001 59.732 -95.9951
2126.303220 59.240 -138.0439
2141.711290 59.125 -152.4590
2157.231013 60.827 -164.7471
2172.863198 62.162 160.4941
2188.608660 61.722 117.4551
2204.468221 60.250 97.3398
2220.442706 59.658 -154.1670
2236.532950 60.128 177.6914
2252.739789 61.086 155.9609
2269.064070 62.068 133.8457
2285.506644 62.468 108.0273
2302.068367 61.877 79.9609
2318.750104 60.268 58.5684
2335.552723 58.747 26.7764
2352.477101 57.899 -172.0645
2369.524119 58.264 153.6650
2386.694668 58.920 123.3652
2403.989641 59.008 104.3105
2421.409941 59.033 139.1484
2438.956476 60.017 137.7734
2456.630160 60.930 113.7617
2474.431915 60.568 86.9561
2492.362668 59.093 69.5215
2510.423356 57.664 85.7637
2528.614918 58.078 96.5801
2546.938304 59.610 85.6875
2565.394469 60.978 64.1689
2583.984375 61.151 30.5371
2602.708991 59.648 -7.6719
2621.569293 57.043 -40.6191
2640.566265 54.650 97.1367
2659.700897 53.766 90.3535
2678.974186 54.696 89.3975
2698.387137 55.097 63.7363
2717.940763 54.112 47.5840
2737.636082 53.371 104.5732
2757.474121 54.266 96.6309
2777.455915 55.287 72.8828
2797.582506 55.846 56.9414
2817.854942 57.194 146.3242
2838.274281 58.325 112.4844
2858.841586 57.888 76.1348
2879.557931 56.482 57.8193
2900.424394 55.596 99.1133
2921.442065 56.048 112.0146
2942.612039 57.783 104.6934
2963.935418 59.062 75.0967
2985.413316 58.888 38.9629
3007.046852 58.524 152.0723
3028.837153 59.053 128.8516
3050.785356 59.244 100.1377
3072.892604 59.007 79.1367
3095.160050 58.687 63.4707
3117.588856 58.462 67.4658
3140.180190 59.196 79.1836
3162.935230 60.047 60.6396
3185.855163 59.452 35.9766
3208.941182 57.576 17.3340
3232.194493 55.345 18.4277
3255.616307 54.486 68.8320
3279.207844 55.283 63.5156
3302.970336 55.676 49.3535
3326.905021 55.237 54.6328
3351.013146 54.933 52.0010
3375.295969 54.590 41.1807
3399.754755 53.848 45.2334
3424.390779 53.542 47.5098
3449.205326 54.047 39.2803
3474.199690 54.798 21.1172
3499.375173 55.564 -10.9287
3524.733088 55.982 162.8232
3550.274757 55.672 105.5020
3576.001511 54.832 78.7822
3601.914692 54.724 103.0605
3628.015651 55.821 104.1973
3654.305748 56.342 82.8291
3680.786354 55.973 65.1680
3707.458849 55.343 56.2920
3734.324624 55.248 56.7344
3761.385080 55.288 52.9277
3788.641627 54.607 57.0977
3816.095686 54.198 77.5371
3843.748688 54.739 76.4561
3871.602076 55.445 69.1094
3899.657300 56.342 73.7461
3927.915825 57.473 73.3379
3956.379122 57.535 55.0791
3985.048676 56.274 41.4922
4013.925981 54.977 49.0469
4043.012544 55.161 61.6797
4072.309879 55.640 56.8154
4101.819515 55.633 54.9844
4131.542990 56.281 60.2393
4161.481854 57.771 62.2754
4191.637667 58.728 49.6240
4222.012001 58.095 35.5654
4252.606441 56.948 34.7500
4283.422580 56.569 34.0615
4314.462026 56.422 27.4268
4345.726396 55.904 19.1279
4377.217321 55.399 20.7432
4408.936442 55.607 28.4160
4440.885413 55.843 17.8672
4473.065899 55.295 15.2549
4505.479579 55.221 47.4580
4538.128141 55.991 41.8975
4571.013288 56.144 24.1475
4604.136735 55.703 21.3945
4637.500207 55.658 27.7549
4671.105446 55.455 15.5352
4704.954201 54.458 5.0771
4739.048239 53.729 15.5078
4773.389336 54.330 27.2832
4807.979283 55.184 15.6260
4842.819883 55.173 -3.9590
4877.912952 54.180 -19.7314
4913.260320 53.412 -9.2031
4948.863830 53.668 -22.8047
4984.725337 53.259 -67.1748
5020.846712 51.959 104.1367
5057.229836 50.865 73.7188
5093.876609 50.493 61.6465
5130.788938 51.176 70.5117
5167.968750 53.009 78.4707
5205.417982 54.500 58.6143
5243.138586 55.100 45.8418
5281.132530 55.712 88.5059
5319.401793 56.378 74.9004
5357.948371 56.532 61.5410
5396.774274 57.001 65.8887
5435.881525 57.597 53.6514
5475.272163 57.313 36.0488
5514.948243 56.420 37.7637
5554.911831 56.012 47.7510
5595.165012 56.389 45.4336
5635.709884 57.219 41.0215
5676.548561 57.846 29.6143
5717.683172 57.724 15.0479
5759.115861 56.978 2.8428
5800.848789 55.895 0.0137
5842.884130 55.150 6.5771
5885.224077 55.210 9.3213
5927.870837 55.563 0.8574
5970.826633 55.486 -11.3145
6014.093704 55.046 -14.4629
6057.674306 54.081 -25.8057
6101.570711 52.572 -12.6826
6145.785208 51.635 3.9814
6190.320101 51.493 -2.3408
6235.177712 52.197 34.7158
6280.360380 52.784 43.5723
6325.870460 52.909 36.5039
6371.710325 53.096 40.4590
6417.882365 53.603 38.0195
6464.388986 53.788 32.7109
6511.232613 54.059 36.2373
6558.415689 54.080 25.4609
6605.940673 53.690 18.7871
6653.810042 53.606 28.7441
6702.026292 53.842 29.3164
6750.591937 54.472 45.3398
6799.509509 55.413 45.9092
6848.781558 56.031 36.3506
6898.410653 56.385 31.6172
6948.399380 56.423 22.3613
6998.750346 56.516 23.5674
7049.466176 57.127 26.9062
7100.549514 57.545 18.7715
7152.003023 57.300 9.3027
7203.829385 57.079 6.2363
7256.031302 57.369 11.6504
7308.611496 58.128 20.9238
7361.572708 58.472 6.7461
7414.917698 58.233 -4.5459
7468.649249 57.971 -15.3115
7522.770160 57.293 -23.9902
7577.283253 56.410 -12.8936
7632.191371 55.799 -15.1797
7687.497376 54.990 -17.0518
7743.204151 53.948 -21.1885
7799.314600 52.998 -6.3613
7855.831649 53.096 9.3994
7912.758244 54.157 15.6719
7970.097352 55.339 9.8418
8027.851962 55.946 -1.4297
8086.025087 56.124 -2.7832
8144.619758 56.763 2.2158
8203.639030 57.399 1.8906
8263.085980 57.326 -11.2100
8322.963708 56.593 -19.8242
8383.275334 56.144 -18.0391
8444.024002 56.280 -16.3604
8505.212881 56.638 -21.2295
8566.845160 56.553 -29.8652
8628.924051 56.212 -36.2197
8691.452792 55.985 -36.6670
8754.434642 55.895 -32.1836
8817.872884 56.094 -26.2041
8881.770826 56.211 -36.4062
8946.131799 55.936 -46.9199
9010.959157 55.652 -41.5498
9076.256282 55.552 -30.1543
9142.026576 54.993 -45.9111
9208.273470 53.894 -62.5703
9275.000415 52.454 -62.1104
9342.210891 51.327 -25.7227
9409.908403 51.483 -4.1240
9478.096478 53.216 18.3516
9546.778672 55.271 23.9746
9615.958566 56.417 8.2012
9685.639765 56.663 -9.3564
9755.825904 56.402 -21.5254
9826.520640 56.267 -22.6592
9897.727659 56.580 -26.8691
9969.450674 56.704 -36.2617
10041.693423 56.324 -45.3594
10114.459673 55.811 -47.3398
10187.753217 55.106 -50.0713
10261.577877 54.097 -56.8291
10335.937500 52.913 -61.9463
10410.835964 52.417 -39.3125
10486.277173 53.215 -1.7314
10562.265060 53.922 -11.8203
10638.803587 53.699 -18.4062
10715.896743 53.482 -15.5488
10793.548548 53.710 -18.5078
10871.763050 53.718 -26.2490
10950.544327 53.809 -21.3418
11029.896485 54.468 -14.9658
11109.823662 54.724 -24.1914
11190.330024 54.449 -30.5205
11271.419768 54.523 -30.0898
11353.097122 54.911 -36.3145
11435.366344 54.795 -48.1875
11518.231722 54.205 -55.4297
11601.697577 53.572 -56.9805
11685.768261 52.836 -62.9678
11770.448155 51.778 -65.6084
11855.741674 50.872 -54.3281
11941.653265 50.562 -40.2227
12028.187408 50.790 -32.9189
12115.348612 51.531 -30.0898
12203.141422 52.492 -35.2422
12291.570415 52.684 -47.7979
12380.640201 51.841 -58.7051
12470.355424 50.475 -60.4785
12560.720760 49.358 -57.6562
12651.740920 49.021 -42.7617
12743.420650 50.186 -20.5654
12835.764729 51.748 -22.2988
12928.777972 52.925 -25.8613
13022.465227 53.665 -35.0029
13116.831378 53.744 -47.2129
13211.881345 53.340 -55.0820
13307.620084 52.876 -51.4238
13404.052584 52.563 -46.6611
13501.183875 52.679 -40.4277
13599.019019 53.534 -33.3857
13697.563116 54.422 -38.1162
13796.821305 54.969 -48.4141
13896.798760 55.154 -58.9756
13997.500692 54.842 -70.0928
14098.932352 53.883 -79.1348
14201.099028 52.733 -81.9902
14304.006046 51.629 -85.3301
14407.658770 50.523 -78.6699
14512.062604 50.358 -68.7705
14617.222992 50.893 -68.7715
14723.145416 51.458 -73.0156
14829.835397 51.700 -80.9932
14937.298497 51.404 -90.4883
15045.540320 50.659 -98.0508
15154.566507 49.704 -102.5732
15264.382743 48.718 -102.3457
15374.994752 48.019 -99.4072
15486.408302 47.556 -100.8193
15598.629201 47.263 -99.9521
15711.663298 47.020 -103.2188
15825.516487 46.244 -108.7451
15940.194703 45.225 -108.8203
16055.703925 44.535 -104.0156
16172.050174 44.728 -91.9854
16289.239516 45.217 -97.7891
16407.278061 45.043 -109.3867
16526.171961 44.597 -123.0234
16645.927415 43.859 -145.4795
16766.550667 42.901 -151.6270
16888.048005 42.763 -14.7080
17010.425762 43.650 -30.2432
17133.690320 44.653 -46.4834
17257.848103 45.302 -56.8174
17382.905584 45.335 -67.9453
17508.869284 44.554 -72.4902
17635.745768 43.816 -68.8096
17763.541652 43.488 -64.9482
17892.263597 43.542 -62.9424
18021.918315 43.929 -61.2969
18152.512564 44.727 -59.7080
18284.053153 45.599 -60.1572
18416.546939 46.211 -64.0469
18550.000830 46.477 -70.9834
18684.421783 46.642 -78.5664
18819.816805 46.594 -89.2402
18956.192956 46.060 -99.8301
19093.557344 45.042 -110.3271
19231.917131 43.501 -119.6211
19371.279531 41.561 -124.0322
19511.651807 39.677 -118.9395
19653.041280 38.421 -110.0000
19795.455318 37.675 -108.5029
19938.901348 37.099 -110.9248
