* Measurement data measured by REW V5.31.1
* Source: Scarlett 2i4 USB, MICROPHONE, R, volume: no control
* Format: 512k Log Swept Sine, 1 sweep at -18.0 dBFS with no timing reference
* Dated: May 7, 2024 4:03:39 PM
* REW Settings:
*  C-weighting compensation: Off
*  Target level: 75.0 dB
* Note: ; 
* Measurement: front-l12-r12-p1-l
* Smoothing: 1/48 octave
* Frequency Step: 96 ppo
* Start Frequency: 10.093689 Hz
*
* Freq(Hz) SPL(dB) Phase(degrees)
10.093689 28.518 -53.6052
10.166832 28.733 -71.7499
10.240505 28.995 -98.5552
10.314712 29.278 -128.1583
10.389457 29.656 -151.9645
10.464743 30.433 -169.9108
10.540575 31.829 175.5823
10.616956 33.503 164.2444
10.693891 35.163 155.0426
10.771383 36.600 146.8975
10.849437 37.798 138.8757
10.928057 38.851 131.1522
11.007246 39.802 123.9444
11.087009 40.681 117.1223
11.167350 41.490 110.2031
11.248273 42.217 103.0156
11.329783 42.876 95.9705
11.411883 43.486 89.2030
11.494578 44.055 82.4426
11.577873 44.573 75.2692
11.661771 45.046 68.0985
11.746277 45.482 61.1933
11.831395 45.885 54.3947
11.917130 46.252 47.1748
12.003487 46.582 39.9311
12.090469 46.879 32.9961
12.178081 47.144 26.2109
12.266329 47.374 19.0466
12.355216 47.569 11.9091
12.444747 47.724 5.1775
12.534926 47.842 -1.4631
12.625760 47.919 -8.3908
12.717251 47.949 -15.1819
12.809406 47.928 -21.4455
12.902228 47.856 -27.7629
12.995723 47.728 -34.1949
13.089895 47.530 -40.3033
13.184750 47.258 -45.8376
13.280292 46.913 -51.4188
13.376526 46.477 -56.8405
13.473458 45.927 -61.5698
13.571093 45.258 -65.6592
13.669434 44.469 -69.2817
13.768489 43.546 -72.0239
13.868261 42.420 -73.1125
13.968756 41.095 -72.0006
14.069979 39.874 -68.1225
14.171936 39.108 -60.9297
14.274632 38.837 -49.1879
14.378072 39.013 -35.8652
14.482261 39.652 -25.7253
14.587206 40.817 -19.4375
14.692910 42.257 -16.1871
14.799381 43.587 -15.2783
14.906624 44.662 -16.1824
15.014643 45.576 -18.1619
15.123446 46.344 -20.5245
15.233036 46.963 -23.2575
15.343421 47.436 -26.4623
15.454606 47.788 -29.5281
15.566596 48.029 -32.3535
15.679398 48.156 -35.2783
15.793018 48.189 -37.8126
15.907460 48.136 -39.7332
16.022732 48.001 -41.3003
16.138840 47.826 -42.2179
16.255788 47.626 -42.2196
16.373585 47.422 -41.3978
16.492234 47.294 -39.9007
16.611744 47.277 -37.5958
16.732119 47.374 -34.7501
16.853367 47.614 -32.1044
16.975494 48.013 -29.6276
17.098505 48.512 -27.6480
17.222408 49.053 -26.5704
17.347209 49.632 -26.1771
17.472914 50.203 -26.4133
17.599530 50.728 -27.2811
17.727063 51.211 -28.6311
17.855521 51.641 -30.2360
17.984909 52.013 -32.1405
18.115235 52.332 -34.2107
18.246506 52.604 -36.2778
18.378727 52.830 -38.4370
18.511907 53.022 -40.5571
18.646052 53.184 -42.6187
18.781169 53.320 -44.6570
18.917265 53.440 -46.6310
19.054347 53.542 -48.5706
19.192423 53.627 -50.4705
19.331499 53.697 -52.3622
19.471583 53.745 -54.2086
19.612682 53.768 -55.9791
19.754804 53.763 -57.6947
19.897956 53.729 -59.1719
20.042144 53.663 -60.4502
20.187378 53.581 -61.3669
20.333664 53.488 -61.7921
20.481010 53.412 -61.7515
20.629424 53.391 -61.1549
20.778913 53.440 -60.0549
20.929486 53.602 -58.8106
21.081150 53.885 -57.4042
21.233912 54.267 -56.4172
21.387782 54.741 -55.8785
21.542767 55.251 -55.9550
21.698874 55.763 -56.7471
21.856113 56.245 -58.0011
22.014492 56.662 -59.6995
22.174018 57.010 -61.6101
22.334700 57.274 -63.4459
22.496546 57.466 -65.1826
22.659566 57.603 -66.3751
22.823766 57.709 -67.1088
22.989157 57.837 -67.1262
23.155745 58.017 -66.5376
23.323542 58.305 -65.6254
23.492554 58.705 -64.5149
23.662790 59.209 -63.8421
23.834261 59.790 -63.5780
24.006973 60.384 -64.0774
24.180938 60.963 -65.1301
24.356163 61.481 -66.6367
24.532658 61.928 -68.3955
24.710431 62.299 -70.0616
24.889493 62.614 -71.5329
25.069853 62.905 -72.4651
25.251519 63.222 -72.9822
25.434502 63.615 -72.9585
25.618811 64.120 -72.9751
25.804456 64.750 -73.1073
25.991445 65.467 -74.1152
26.179790 66.236 -75.9105
26.369500 66.983 -78.8486
26.560584 67.672 -82.6273
26.753053 68.254 -87.2523
26.946917 68.709 -92.3149
27.142185 69.019 -97.8358
27.338869 69.178 -103.2350
27.536977 69.187 -108.6091
27.736522 69.059 -113.3090
27.937512 68.823 -117.3438
28.139959 68.522 -120.2148
28.343872 68.246 -121.9801
28.549264 68.064 -122.5167
28.756143 68.075 -122.5328
28.964522 68.283 -122.5869
29.174411 68.661 -123.3748
29.385821 69.102 -125.3677
29.598763 69.533 -128.4581
29.813248 69.871 -132.5659
30.029287 70.079 -137.1550
30.246891 70.136 -142.1132
30.466073 70.040 -146.8149
30.686842 69.811 -151.0370
30.909212 69.479 -154.4757
31.133193 69.107 -156.8038
31.358797 68.762 -158.1052
31.586035 68.504 -158.3980
31.814921 68.380 -158.2671
32.045465 68.376 -158.0607
32.277680 68.461 -158.0735
32.511577 68.579 -158.3932
32.747169 68.708 -158.7916
32.984469 68.849 -159.1312
33.223488 69.029 -159.2181
33.464239 69.286 -159.1978
33.706735 69.635 -159.3317
33.950987 70.068 -159.9088
34.197010 70.536 -161.2767
34.444816 70.985 -163.4120
34.694417 71.370 -166.1858
34.945827 71.661 -169.4042
35.199059 71.849 -172.6958
35.454126 71.949 -175.8344
35.711041 71.986 -178.6764
35.969818 71.993 178.8728
36.230470 72.002 176.7153
36.493011 72.021 174.6554
36.757455 72.044 172.5399
37.023814 72.047 170.2577
37.292104 72.000 167.8143
37.562338 71.879 165.4038
37.834530 71.678 163.2635
38.108695 71.410 161.6352
38.384846 71.105 160.7441
38.662999 70.809 160.7130
38.943167 70.575 161.4384
39.225365 70.437 162.6458
39.509608 70.399 164.0026
39.795911 70.442 165.2326
40.084289 70.528 166.2247
40.374756 70.617 167.0860
40.667328 70.693 168.1587
40.962020 70.782 169.9472
41.258848 70.973 172.8874
41.557827 71.400 176.9762
41.858972 72.172 -178.6032
42.162299 73.283 -175.2744
42.467824 74.606 -174.1946
42.775564 75.968 -175.6891
43.085533 77.238 -179.4385
43.397749 78.340 175.1182
43.712227 79.245 168.5481
44.028983 79.948 161.3361
44.348036 80.458 153.8648
44.669400 80.793 146.4295
44.993093 80.978 139.2540
45.319131 81.039 132.4980
45.647532 81.004 126.2662
45.978313 80.901 120.6143
46.311491 80.757 115.5535
46.647083 80.598 111.0527
46.985107 80.445 107.0350
47.325581 80.315 103.3823
47.668521 80.216 99.9590
48.013947 80.143 96.6576
48.361876 80.090 93.4430
48.712326 80.054 90.3572
49.065315 80.046 87.4677
49.420863 80.089 84.7787
49.778987 80.209 82.1667
50.139706 80.417 79.4003
50.503039 80.708 76.2457
50.869005 81.066 72.5503
51.237623 81.478 68.2296
51.608912 81.941 63.1661
51.982891 82.445 57.1289
52.359580 82.960 49.8127
52.739000 83.429 40.9768
53.121168 83.779 30.5676
53.506106 83.938 18.7426
53.893833 83.846 5.7779
54.284370 83.458 -7.9514
54.677737 82.746 -21.9785
55.073955 81.696 -35.7749
55.473043 80.315 -48.7700
55.875024 78.640 -60.4208
56.279917 76.746 -70.3342
56.687745 74.749 -78.5954
57.098527 72.768 -86.1042
57.512287 70.858 -94.3156
57.929045 68.987 -104.5776
58.348822 67.111 -118.0692
58.771642 65.329 -136.3888
59.197525 64.045 -161.3530
59.626495 63.836 168.6812
60.058573 64.760 140.6606
60.493782 66.237 118.2227
60.932145 67.740 100.0923
61.373685 69.045 84.4644
61.818424 70.082 70.3717
62.266386 70.849 57.4424
62.717593 71.369 45.5317
63.172071 71.686 34.7488
63.629842 71.872 25.2925
64.090930 72.023 17.1881
64.555359 72.237 10.1716
65.023154 72.576 3.6353
65.494339 73.033 -3.0342
65.968938 73.558 -10.1849
66.446976 74.109 -17.7775
66.928478 74.675 -25.6228
67.413469 75.266 -33.6261
67.901975 75.890 -41.8558
68.394021 76.534 -50.4323
68.889632 77.174 -59.3480
69.388835 77.799 -68.4352
69.891655 78.420 -77.5262
70.398118 79.062 -86.6060
70.908252 79.731 -95.8691
71.422083 80.400 -105.5802
71.939636 81.019 -115.8322
72.460941 81.540 -126.4669
72.986023 81.942 -137.2014
73.514909 82.231 -147.6893
74.047629 82.438 -157.7167
74.584208 82.609 -167.2465
75.124676 82.784 -176.5291
75.669061 82.964 173.9714
76.217390 83.105 163.7821
76.769692 83.127 152.7432
77.325997 82.955 140.9902
77.886333 82.541 128.8883
78.450730 81.862 116.6083
79.019216 80.890 104.0399
79.591822 79.547 90.8792
80.168577 77.699 76.8065
80.749512 75.238 61.3048
81.334656 72.617 39.7643
81.924040 72.207 -119.5093
82.517696 74.654 -145.4215
83.115653 77.456 -159.3292
83.717943 79.728 -172.1046
84.324598 81.425 175.0573
84.935649 82.609 162.3068
85.551128 83.364 150.2301
86.171066 83.799 139.3967
86.795497 84.035 130.0898
87.424453 84.184 122.2361
88.057967 84.334 115.4735
88.696071 84.531 109.2567
89.338800 84.777 103.0770
89.986185 85.053 96.7219
90.638262 85.358 90.1622
91.295065 85.704 83.1093
91.956626 86.057 74.8975
92.622982 86.310 65.0090
93.294166 86.329 53.6001
93.970214 86.013 41.4960
94.651161 85.333 29.8690
95.337042 84.348 19.8169
96.027894 83.182 11.8564
96.723752 81.972 5.6625
97.424652 80.794 0.5624
98.130631 79.673 -3.8158
98.841726 78.620 -7.7231
99.557974 77.629 -11.6364
100.279412 76.654 -15.9183
101.006078 75.630 -20.4379
101.738010 74.524 -24.7759
102.475245 73.347 -28.6719
103.217823 72.130 -32.1577
103.965782 70.903 -35.3186
104.719161 69.707 -38.3281
105.477999 68.581 -41.7234
106.242336 67.548 -45.9039
107.012212 66.698 -50.7002
107.787666 66.288 -56.4563
108.568740 66.593 -65.0238
109.355474 67.555 -78.3960
110.147909 68.786 -96.1694
110.946086 69.955 -115.4602
111.750047 70.994 -132.9819
112.559834 72.020 -147.1621
113.375489 73.113 -158.7549
114.197055 74.195 -169.3770
115.024574 75.157 -179.5625
115.858089 75.976 171.1047
116.697645 76.703 162.8630
117.543284 77.370 155.2571
118.395051 77.934 147.7241
119.252990 78.339 140.5588
120.117147 78.619 134.8242
120.987565 78.923 131.2205
121.864291 79.409 129.0552
122.747370 80.111 126.7861
123.636848 80.935 123.2153
124.532771 81.739 117.8384
125.435187 82.395 110.8425
126.344142 82.839 103.1343
127.259684 83.107 95.7827
128.181860 83.301 89.2546
129.110718 83.513 83.2344
130.046308 83.775 76.9956
130.988677 84.031 69.6880
131.937875 84.166 61.0771
132.893951 84.101 51.8313
133.856956 83.835 42.4663
134.826938 83.370 32.8123
135.803950 82.667 22.7166
136.788041 81.669 12.2742
137.779264 80.307 1.5232
138.777669 78.480 -9.5645
139.783309 76.073 -21.0266
140.796237 73.177 -31.9399
141.816504 71.156 85.8772
142.844165 72.056 112.0781
143.879273 74.138 102.4246
144.921881 75.854 93.7334
145.972045 77.097 86.6262
147.029819 78.015 80.5046
148.095257 78.665 74.3037
149.168417 79.045 68.1523
150.249353 79.206 62.9832
151.338121 79.273 59.4419
152.434780 79.431 57.9966
153.539385 79.791 56.5913
154.651995 80.139 51.9771
155.772667 80.156 45.1802
156.901460 79.759 39.6196
158.038432 79.158 38.0454
159.183644 78.709 39.9631
160.337154 78.614 42.4448
161.499023 78.862 44.3132
162.669312 79.390 45.2373
163.848081 80.049 43.6094
165.035392 80.569 38.4001
166.231306 80.722 31.1919
167.435887 80.470 24.7566
168.649196 79.948 20.5750
169.871298 79.328 18.9038
171.102255 78.794 19.5486
172.342133 78.452 20.8279
173.590995 78.281 21.9053
174.848907 78.248 22.9893
176.115934 78.417 25.1597
177.392143 78.879 27.3384
178.677599 79.505 26.8186
179.972371 80.061 23.5815
181.276525 80.417 18.9888
182.590129 80.598 14.5996
183.913252 80.767 11.5044
185.245964 81.088 8.6262
186.588332 81.464 2.8015
187.940428 81.593 -6.5903
189.302322 81.265 -17.5142
190.674085 80.408 -28.6611
192.055788 78.950 -39.0120
193.447503 76.837 -45.5525
194.849303 74.234 -43.6050
196.261262 72.021 -23.1624
197.683452 71.987 14.8247
199.115948 73.609 25.3103
200.558824 74.893 18.4856
202.012156 75.183 8.1929
203.476019 74.597 2.1416
204.950490 73.863 7.9185
206.435646 74.225 24.7471
207.931564 75.848 35.6716
209.438322 77.655 34.5540
210.955998 78.928 25.9470
212.484672 79.488 15.2290
214.024424 79.469 6.5266
215.575333 79.256 2.6748
217.137481 79.372 2.9346
218.710948 79.994 1.7063
220.295818 80.746 -5.1670
221.892172 81.128 -17.6501
223.500094 80.789 -33.4167
225.119668 79.558 -48.7000
226.750978 77.441 -59.5344
228.394109 74.609 -62.7908
230.049147 71.709 -47.5525
231.716178 70.804 8.8777
233.395289 72.362 25.8601
235.086567 74.021 20.8811
236.790102 74.886 12.4775
238.505980 75.102 7.4280
240.234293 75.243 9.4414
241.975130 75.897 15.7498
243.728581 77.040 19.0918
245.494739 78.179 16.4539
247.273695 78.977 10.3743
249.065542 79.515 5.6528
250.870374 80.122 3.5117
252.688284 80.909 0.3281
254.519367 81.673 -5.9563
256.363720 82.192 -14.6565
258.221437 82.319 -24.8928
260.092616 81.961 -35.2476
261.977354 81.187 -42.4050
263.875750 80.470 -42.0481
265.787903 80.504 -37.2922
267.713911 81.167 -39.4553
269.653877 81.712 -48.9897
271.607900 81.786 -60.6414
273.576083 81.412 -72.0269
275.558528 80.610 -83.9355
277.555338 79.279 -95.1641
279.566619 77.471 -101.4653
281.592474 75.538 -104.3147
283.633009 73.676 -112.3962
285.688331 71.888 -125.8860
287.758546 71.458 -2.0654
289.843763 73.374 7.1145
291.944090 75.731 -8.5073
294.059638 77.446 -24.8772
296.190515 78.369 -41.7695
298.336833 78.490 -58.7166
300.498705 77.777 -74.5103
302.676243 76.309 -84.4851
304.869559 74.966 -73.9180
307.078770 75.577 -46.0854
309.303989 77.694 -42.0974
311.545334 79.769 -50.7295
313.802919 81.337 -64.1338
316.076865 82.338 -79.9780
318.367288 82.810 -96.5845
320.674309 82.832 -112.7173
322.998047 82.526 -127.3843
325.338624 82.066 -139.9385
327.696162 81.680 -150.4600
330.070783 81.509 -161.0354
332.462612 81.394 -174.3616
334.871773 81.010 170.1055
337.298392 80.225 156.0850
339.742595 79.387 148.3423
342.204510 79.196 145.0483
344.684265 79.668 136.5376
347.181989 80.094 121.6699
349.697813 80.044 104.8567
352.231868 79.500 89.6108
354.784285 78.693 78.2659
357.355198 77.937 69.7068
359.944741 77.273 60.2900
362.553049 76.516 51.2554
365.180258 75.720 45.8074
367.826505 75.068 41.4360
370.491927 74.331 33.5144
373.176665 73.198 28.2034
375.880856 72.396 40.1758
378.604644 73.299 59.5515
381.348169 75.359 62.8582
384.111575 77.441 56.9883
386.895006 79.077 44.9680
389.698607 80.074 28.8154
392.522524 80.403 11.3853
395.366904 80.080 -6.1052
398.231895 79.068 -22.5115
401.117648 77.406 -33.5552
404.024312 75.683 -28.7124
406.952038 75.063 -17.4785
409.900981 75.371 -21.1521
412.871292 75.772 -28.1807
415.863128 76.123 -35.9597
418.876643 76.276 -47.1545
421.911996 76.025 -60.2756
424.969344 75.292 -73.7019
428.048847 74.111 -85.2937
431.150666 73.059 -86.1565
434.274961 73.421 -77.5544
437.421897 74.842 -85.7402
440.591636 75.962 -106.6646
443.784345 76.387 -131.1204
447.000189 76.315 -154.5354
450.239337 76.138 -175.5183
453.501956 76.135 164.4688
456.788219 76.230 143.7048
460.098294 76.127 122.3765
463.432356 75.707 103.4534
466.790578 75.176 88.2571
470.173135 74.546 72.4341
473.580203 73.470 55.9121
477.011961 72.073 48.1675
480.468586 71.880 80.0195
483.950259 73.405 92.9312
487.457163 74.778 78.0920
490.989478 75.392 62.8906
494.547390 75.748 54.1467
498.131084 76.301 46.9036
501.740748 76.875 35.8340
505.376568 77.160 21.7319
509.038735 77.028 5.9941
512.727439 76.459 -11.8025
516.442874 75.367 -32.7737
520.185232 73.908 -58.9485
523.954708 72.864 -104.8513
527.751500 73.237 166.2334
531.575805 74.316 107.9297
535.427822 74.913 74.2874
539.307753 75.081 54.1833
543.215800 75.449 42.7903
547.152165 76.300 33.2742
551.117055 77.119 17.3462
555.110677 77.023 -6.7209
559.133237 75.680 -31.0564
563.184947 73.557 -55.2932
567.266018 71.976 -101.1267
571.376661 72.431 128.9714
575.517092 73.906 83.3313
579.687526 74.925 54.6472
583.888181 75.201 33.1223
588.119275 75.012 17.4932
592.381030 74.595 3.5088
596.673667 73.751 -12.9487
600.997410 72.050 -29.5339
605.352485 69.319 -36.6003
609.739119 66.238 -28.1736
614.157540 65.125 24.4912
618.607979 67.358 72.7388
623.090667 70.761 72.3621
627.605839 73.808 61.8645
632.153730 75.761 37.0957
636.734576 76.275 3.5298
641.348617 75.263 -34.5559
645.996094 73.232 -76.7783
650.677248 72.545 -134.5547
655.392323 74.551 173.4568
660.141566 76.789 137.3601
664.925224 78.263 109.0000
669.743546 78.990 86.7476
674.596784 79.390 71.4927
679.485191 79.596 56.5044
684.409020 79.323 42.4893
689.368530 78.832 35.4097
694.363979 78.335 25.7344
699.395626 77.300 13.4131
704.463736 75.573 7.6035
709.568570 73.878 18.4229
714.710396 73.556 40.7422
719.889483 74.469 46.0759
725.106099 75.640 46.8870
730.360516 76.355 39.7588
735.653010 76.269 31.9907
740.983855 75.920 30.8486
746.353329 76.433 39.3711
751.761713 78.389 63.2446
757.209288 80.434 60.7729
762.696339 81.545 46.5090
768.223151 82.187 38.3130
773.790013 82.841 30.9365
779.397214 83.142 19.3213
785.045047 82.986 12.0186
790.733808 83.074 11.7500
796.463791 83.573 7.2764
802.235296 84.247 2.6309
808.048623 85.047 -4.7119
813.904077 85.705 -16.0596
819.801961 86.144 -29.2373
825.742584 86.320 -44.8628
831.726255 86.066 -63.9302
837.753287 85.182 -85.4639
843.823992 83.544 -108.1401
849.938689 81.256 -129.5889
856.097695 79.190 -156.1240
862.301332 79.090 165.5322
868.549922 81.209 118.7314
874.843793 83.313 75.0771
881.183272 84.396 38.3374
887.568689 84.668 10.6348
894.000378 84.785 -9.9600
900.478673 84.992 -29.7861
907.003913 84.913 -53.7754
913.576437 83.990 -81.7456
920.196588 82.092 -111.8638
926.864712 79.555 -150.4590
933.581156 77.741 134.9956
940.346270 78.385 67.3843
947.160407 80.189 33.2134
954.023921 81.335 4.7861
960.937172 81.188 -19.6357
967.900519 80.232 -31.3403
974.914325 79.552 -37.8184
981.978956 78.818 -52.8433
989.094780 77.379 -59.0000
996.262169 77.116 -15.8491
1003.481495 79.454 0.2388
1010.753136 81.902 -12.3076
1018.077470 83.118 -34.9355
1025.454879 82.936 -58.2871
1032.885748 81.592 -75.7251
1040.370463 79.663 -81.5044
1047.909417 78.196 -79.1382
1055.503000 77.733 -80.5532
1063.151610 77.998 -78.9209
1070.855645 78.296 -89.7373
1078.615506 77.370 -107.4126
1086.431599 75.934 -65.7095
1094.304330 76.228 -48.1401
1102.234110 78.045 -55.7593
1110.221353 80.016 -68.8027
1118.266475 81.126 -91.4746
1126.369895 81.241 -114.7168
1134.532035 81.255 -133.4678
1142.753322 81.196 -161.2168
1151.034184 80.071 164.7729
1159.375052 78.146 136.7065
1167.776361 77.158 115.0508
1176.238550 77.409 84.6465
1184.762060 77.421 54.4243
1193.347334 77.593 33.3179
1201.994821 77.836 7.0366
1210.704971 77.203 -19.8521
1219.478238 75.601 -36.5254
1228.315080 73.921 -39.1416
1237.215957 72.940 -40.6099
1246.181334 72.180 -54.3110
1255.211678 72.071 -66.3042
1264.307459 74.265 55.9395
1273.469152 77.207 47.8232
1282.697235 79.171 19.0718
1291.992188 80.265 -4.7837
1301.354495 81.119 -23.0986
1310.784647 81.769 -42.5000
1320.283132 82.113 -62.5210
1329.850448 82.082 -87.1465
1339.487093 81.212 -117.9854
1349.193569 79.190 -153.0459
1358.970381 75.976 169.6172
1368.818041 72.853 107.1909
1378.737061 73.211 66.6846
1388.727958 75.680 37.6553
1398.791253 77.544 6.3535
1408.927471 78.292 -21.6069
1419.137140 78.121 -40.8896
1429.420793 77.994 -53.1362
1439.778965 77.645 -71.4775
1450.212197 76.608 -70.3735
1460.721033 76.626 -24.0723
1471.306019 77.780 -26.3311
1481.967709 78.589 -43.0063
1492.706658 78.997 -57.0088
1503.523426 79.275 -65.6528
1514.418576 79.590 -76.0732
1525.392678 79.343 -91.8447
1536.446302 79.089 -41.1401
1547.580025 80.361 -27.0449
1558.794428 82.282 -40.7954
1570.090095 83.456 -59.9946
1581.467615 83.901 -77.1782
1592.927581 83.834 -91.1299
1604.470591 83.926 -98.1152
1616.097246 84.378 -109.2915
1627.808153 84.645 -124.9009
1639.603922 84.672 -141.9087
1651.485168 84.108 -165.2129
1663.452510 82.375 171.5923
1675.506573 80.320 152.9546
1687.647984 79.872 56.7871
1699.877377 80.642 -70.7896
1712.195390 81.573 -99.4805
1724.602663 82.758 -118.5859
1737.099845 83.406 -142.5869
1749.687587 82.680 -166.5874
1762.366544 80.935 178.0361
1775.137379 79.136 168.7515
1788.000756 77.786 165.8730
1800.957346 77.026 -164.4976
1814.007826 77.759 -132.0547
1827.152874 79.396 -131.9971
1840.393177 80.828 -144.8525
1853.729425 82.109 -158.0469
1867.162312 83.213 -171.7505
1880.692540 83.652 167.8730
1894.320813 82.855 146.9971
1908.047843 81.537 140.2837
1921.874344 81.555 144.1348
1935.801038 82.091 127.2070
1949.828650 81.018 100.3843
1963.957912 78.429 104.2778
1978.189561 76.313 148.0249
1992.524338 76.024 147.6611
2006.962991 77.465 158.4087
2021.506272 79.372 153.4277
2036.154940 80.660 133.2988
2050.909758 81.371 110.2700
2065.771495 81.617 80.0596
2080.740927 80.702 37.1855
2095.818833 79.027 -30.8018
2111.006001 78.824 -122.0049
2126.303220 79.907 -167.1494
2141.711290 80.735 161.5488
2157.231013 80.682 136.1792
2172.863198 80.058 116.8921
2188.608660 79.060 101.3525
2204.468221 77.987 97.2656
2220.442706 77.434 115.2075
2236.532950 77.623 111.6177
2252.739789 78.298 103.5542
2269.064070 79.204 94.1973
2285.506644 79.702 76.1880
2302.068367 79.639 54.5796
2318.750104 79.238 26.7485
2335.552723 78.733 -14.0322
2352.477101 77.872 -88.4756
2369.524119 78.204 -156.9707
2386.694668 80.459 -179.8989
2403.989641 81.906 142.4746
2421.409941 81.420 103.4111
2438.956476 79.372 78.5908
2456.630160 76.848 71.8457
2474.431915 75.260 78.4678
2492.362668 75.680 96.5850
2510.423356 78.181 143.7251
2528.614918 80.600 126.7041
2546.938304 81.769 95.6255
2565.394469 82.111 66.0835
2583.984375 81.962 32.9189
2602.708991 80.818 -8.1157
2621.569293 78.912 -58.8218
2640.566265 78.159 -129.3467
2659.700897 78.897 171.3428
2678.974186 79.169 130.0259
2698.387137 78.821 97.8794
2717.940763 77.616 72.9624
2737.636082 76.402 96.6675
2757.474121 76.600 113.7441
2777.455915 77.000 95.4624
2797.582506 76.878 76.0664
2817.854942 75.964 61.0811
2838.274281 74.632 55.1489
2858.841586 73.354 53.3989
2879.557931 72.260 42.6206
2900.424394 72.674 27.4307
2921.442065 75.424 168.2866
2942.612039 78.028 137.3184
2963.935418 78.824 101.9458
2985.413316 77.887 71.2319
3007.046852 76.162 65.3320
3028.837153 75.957 127.1060
3050.785356 77.553 116.9478
3072.892604 78.790 93.5791
3095.160050 78.885 67.3232
3117.588856 77.969 42.8076
3140.180190 76.996 28.6270
3162.935230 76.613 92.5815
3185.855163 76.469 73.4116
3208.941182 75.735 75.6880
3232.194493 75.277 136.0518
3255.616307 76.039 123.0352
3279.207844 77.053 112.9673
3302.970336 77.934 105.0332
3326.905021 78.413 89.6704
3351.013146 78.158 75.0352
3375.295969 77.451 64.1221
3399.754755 76.449 51.8091
3424.390779 75.876 85.2739
3449.205326 76.622 116.3335
3474.199690 77.123 96.0830
3499.375173 76.701 78.7090
3524.733088 76.301 76.1255
3550.274757 77.295 105.9282
3576.001511 78.667 100.0493
3601.914692 78.909 79.0181
3628.015651 78.133 67.4839
3654.305748 77.284 67.5898
3680.786354 76.703 68.9648
3707.458849 76.848 72.8604
3734.324624 76.817 64.5117
3761.385080 75.944 74.3457
3788.641627 75.952 89.7485
3816.095686 76.974 90.6689
3843.748688 78.428 106.1406
3871.602076 79.214 93.4995
3899.657300 78.805 76.8481
3927.915825 78.044 68.8955
3956.379122 77.933 72.0142
3985.048676 78.360 78.0908
4013.925981 78.123 69.2524
4043.012544 77.354 66.8604
4072.309879 77.317 73.7539
4101.819515 78.075 73.2358
4131.542990 78.821 70.3545
4161.481854 79.029 62.9517
4191.637667 78.878 55.7603
4222.012001 78.775 49.7241
4252.606441 78.862 48.1787
4283.422580 78.781 41.5059
4314.462026 77.927 33.5181
4345.726396 77.276 48.4658
4377.217321 77.897 60.8027
4408.936442 78.458 55.8408
4440.885413 78.030 44.2144
4473.065899 77.181 47.7393
4505.479579 76.686 44.9062
4538.128141 75.852 39.3516
4571.013288 74.866 39.8057
4604.136735 74.483 44.4194
4637.500207 74.476 47.5166
4671.105446 74.513 59.4976
4704.954201 74.727 61.4541
4739.048239 74.921 61.3506
4773.389336 75.610 62.3115
4807.979283 76.263 51.7651
4842.819883 75.809 39.5298
4877.912952 74.968 60.1938
4913.260320 75.200 73.5977
4948.863830 75.992 70.6099
4984.725337 76.919 65.6450
5020.846712 77.896 59.1318
5057.229836 78.200 45.5952
5093.876609 77.299 38.9077
5130.788938 76.125 44.9551
5167.968750 75.861 48.6074
5205.417982 75.925 43.9761
5243.138586 75.832 45.8862
5281.132530 76.091 53.2295
5319.401793 76.554 47.8164
5357.948371 76.459 38.6733
5396.774274 75.711 32.3423
5435.881525 75.111 39.5552
5475.272163 75.487 50.5020
5514.948243 76.034 51.4009
5554.911831 76.620 48.8057
5595.165012 76.822 37.4585
5635.709884 76.133 29.5752
5676.548561 75.608 33.8789
5717.683172 75.797 36.5698
5759.115861 75.778 32.5278
5800.848789 75.290 43.8062
5842.884130 75.182 43.6626
5885.224077 75.020 33.7021
5927.870837 74.643 32.3037
5970.826633 74.586 38.2480
6014.093704 74.710 46.9487
6057.674306 75.343 50.8018
6101.570711 76.330 46.5488
6145.785208 76.631 34.3047
6190.320101 76.002 27.6436
6235.177712 75.519 29.1997
6280.360380 75.304 23.2085
6325.870460 74.944 33.3579
6371.710325 74.842 46.6025
6417.882365 74.782 39.4883
6464.388986 74.541 34.4272
6511.232613 74.070 29.0825
6558.415689 73.362 28.6821
6605.940673 73.199 43.7026
6653.810042 73.658 47.0596
6702.026292 73.948 46.1113
6750.591937 74.386 48.4556
6799.509509 75.127 45.0684
6848.781558 75.584 41.0640
6898.410653 76.024 45.5957
6948.399380 76.528 39.2192
6998.750346 76.919 35.4409
7049.466176 77.200 27.4434
7100.549514 76.440 16.2305
7152.003023 74.982 23.5337
7203.829385 74.057 29.8784
7256.031302 73.960 34.8633
7308.611496 74.429 36.1689
7361.572708 74.684 30.5825
7414.917698 74.964 37.7471
7468.649249 75.714 42.6812
7522.770160 76.549 41.0366
7577.283253 77.103 29.6768
7632.191371 76.463 15.9619
7687.497376 75.198 19.7236
7743.204151 74.910 31.1938
7799.314600 75.744 38.2700
7855.831649 76.559 35.7822
7912.758244 76.395 26.2764
7970.097352 75.978 28.4341
8027.851962 76.454 38.2852
8086.025087 77.652 40.3555
8144.619758 78.111 24.8164
8203.639030 77.212 15.8838
8263.085980 76.147 23.3428
8322.963708 76.157 31.7915
8383.275334 76.744 30.4531
8444.024002 76.992 22.8765
8505.212881 76.847 16.6943
8566.845160 76.718 18.8853
8628.924051 77.243 25.2397
8691.452792 77.687 16.4795
8754.434642 77.302 7.0225
8817.872884 76.728 11.4316
8881.770826 76.986 22.9272
8946.131799 77.555 18.1895
9010.959157 77.647 11.2290
9076.256282 77.291 6.4624
9142.026576 76.972 9.6885
9208.273470 77.277 12.1592
9275.000415 77.730 7.9326
9342.210891 77.682 1.1265
9409.908403 77.318 1.0112
9478.096478 77.276 0.1660
9546.778672 77.260 -5.1377
9615.958566 76.851 -11.8149
9685.639765 76.257 -12.2622
9755.825904 76.095 -7.8413
9826.520640 76.142 -11.5596
9897.727659 75.618 -18.9375
9969.450674 74.858 -16.7798
10041.693423 74.692 -12.0356
10114.459673 74.608 -15.0938
10187.753217 74.102 -20.5820
10261.577877 73.274 -19.8804
10335.937500 72.651 -14.3291
10410.835964 72.202 -16.5518
10486.277173 71.661 -16.0703
10562.265060 71.893 4.6772
10638.803587 72.800 13.1284
10715.896743 73.279 9.6021
10793.548548 73.776 11.5425
10871.763050 74.547 13.3027
10950.544327 74.857 5.3086
11029.896485 74.647 0.3706
11109.823662 74.824 6.4023
11190.330024 75.305 2.3569
11271.419768 75.100 -8.7202
11353.097122 74.443 -7.1006
11435.366344 74.282 -2.0132
11518.231722 74.322 -8.5986
11601.697577 73.838 -13.2280
11685.768261 73.500 -7.1304
11770.448155 73.691 -7.9600
11855.741674 73.478 -11.0527
11941.653265 73.315 -2.4844
12028.187408 73.742 0.2261
12115.348612 73.840 -5.7788
12203.141422 73.752 -4.4814
12291.570415 73.946 -3.8589
12380.640201 73.888 -9.4019
12470.355424 73.721 -9.7266
12560.720760 73.707 -9.9907
12651.740920 73.483 -15.5190
12743.420650 73.050 -13.7192
12835.764729 73.086 -2.4033
12928.777972 73.423 0.3140
13022.465227 73.694 -0.8223
13116.831378 73.968 -2.6123
13211.881345 74.254 -5.6865
13307.620084 74.465 -9.3188
13404.052584 74.687 -11.2944
13501.183875 74.780 -16.2764
13599.019019 74.642 -19.2217
13697.563116 74.636 -20.9585
13796.821305 74.645 -26.4692
13896.798760 74.476 -31.4434
13997.500692 74.276 -36.6890
14098.932352 73.683 -45.6904
14201.099028 72.491 -47.9775
14304.006046 71.470 -45.9316
14407.658770 70.797 -44.1152
14512.062604 70.581 -38.3687
14617.222992 70.685 -39.6909
14723.145416 70.636 -43.0830
14829.835397 70.628 -44.8223
14937.298497 70.352 -50.4893
15045.540320 69.642 -54.0576
15154.566507 68.934 -55.7090
15264.382743 68.108 -60.6069
15374.994752 67.057 -59.1123
15486.408302 66.248 -58.2539
15598.629201 65.689 -56.0933
15711.663298 65.585 -52.2886
15825.516487 65.305 -57.7964
15940.194703 64.336 -59.7891
16055.703925 63.195 -65.8535
16172.050174 62.216 -62.5566
16289.239516 62.017 -41.3140
16407.278061 62.027 -8.6104
16526.171961 62.264 6.2046
16645.927415 62.905 12.0527
16766.550667 64.065 19.9990
16888.048005 64.921 19.5483
17010.425762 65.717 21.6611
17133.690320 66.452 15.5605
17257.848103 67.144 11.2178
17382.905584 67.461 3.2939
17508.869284 67.191 -1.1997
17635.745768 66.985 -3.5498
17763.541652 66.848 -6.7100
17892.263597 66.571 -8.0771
18021.918315 66.139 -6.9287
18152.512564 65.869 -0.3486
18284.053153 65.869 2.3081
18416.546939 66.223 2.2261
18550.000830 66.634 -0.4116
18684.421783 66.947 -3.6216
18819.816805 67.050 -9.4150
18956.192956 66.974 -15.4263
19093.557344 66.664 -23.1504
19231.917131 65.988 -30.6250
19371.279531 64.978 -36.9927
19511.651807 63.650 -40.9146
19653.041280 62.163 -42.7666
19795.455318 60.866 -41.8125
19938.901348 60.185 -39.0239
