* Measurement data measured by REW V5.31.1
* Source: Scarlett 2i4 USB, MICROPHONE, R, volume: no control
* Format: 512k Log Swept Sine, 1 sweep at -18.0 dBFS with no timing reference
* Dated: May 7, 2024 2:02:26 PM
* REW Settings:
*  C-weighting compensation: Off
*  Target level: 75.0 dB
* Note: ; 
* Measurement: front-empty-p1-r
* Smoothing: 1/48 octave
* Frequency Step: 96 ppo
* Start Frequency: 10.093689 Hz
*
* Freq(Hz) SPL(dB) Phase(degrees)
10.093689 50.914 144.5722
10.166832 50.701 146.0445
10.240505 50.441 148.1575
10.314712 50.173 150.8002
10.389457 49.918 153.8008
10.464743 49.735 156.9851
10.540575 49.674 160.5556
10.616956 49.690 164.3061
10.693891 49.757 167.9371
10.771383 49.862 171.1868
10.849437 50.020 174.0374
10.928057 50.226 176.5580
11.007246 50.434 178.7583
11.087009 50.596 -179.3054
11.167350 50.696 -177.6585
11.248273 50.751 -176.3442
11.329783 50.749 -175.0979
11.411883 50.663 -173.6250
11.494578 50.464 -171.7665
11.577873 50.148 -169.7244
11.661771 49.771 -167.1024
11.746277 49.397 -163.3723
11.831395 49.036 -158.0555
11.917130 48.649 -151.0751
12.003487 48.371 -142.2679
12.090469 48.405 -132.1074
12.178081 48.903 -121.6104
12.266329 49.802 -111.7027
12.355216 50.908 -103.6931
12.444747 52.050 -98.0930
12.534926 53.199 -94.3906
12.625760 54.385 -91.9453
12.717251 55.526 -90.6100
12.809406 56.541 -90.2259
12.902228 57.431 -90.5577
12.995723 58.219 -91.3251
13.089895 58.910 -92.3461
13.184750 59.505 -93.6049
13.280292 60.000 -95.1923
13.376526 60.400 -96.8293
13.473458 60.712 -98.2869
13.571093 60.930 -99.8020
13.669434 61.057 -101.3141
13.768489 61.098 -102.4827
13.868261 61.049 -103.1664
13.968756 60.910 -103.5886
14.069979 60.711 -103.4492
14.171936 60.476 -102.3893
14.274632 60.184 -100.3711
14.378072 59.914 -97.3569
14.482261 59.782 -93.3777
14.587206 59.815 -88.2913
14.692910 60.008 -82.5973
14.799381 60.389 -77.3279
14.906624 60.995 -72.8030
15.014643 61.768 -69.0933
15.123446 62.583 -66.7434
15.233036 63.376 -65.7333
15.343421 64.159 -65.6101
15.454606 64.880 -66.2894
15.566596 65.503 -67.7595
15.679398 66.038 -69.8420
15.793018 66.477 -72.2305
15.907460 66.814 -74.9593
16.022732 67.048 -78.1138
16.138840 67.177 -81.2872
16.255788 67.200 -84.5332
16.373585 67.113 -88.0297
16.492234 66.910 -91.3107
16.611744 66.587 -94.4648
16.732119 66.141 -97.5888
16.853367 65.558 -100.1976
16.975494 64.832 -102.2899
17.098505 63.968 -103.7693
17.222408 62.961 -104.1005
17.347209 61.805 -102.7601
17.472914 60.656 -99.4867
17.599530 59.637 -93.6693
17.727063 58.811 -84.7648
17.855521 58.436 -74.8703
17.984909 58.648 -65.5156
18.115235 59.195 -58.2426
18.246506 59.811 -53.8439
18.378727 60.469 -51.7813
18.511907 61.025 -51.1088
18.646052 61.403 -51.6740
18.781169 61.621 -53.0062
18.917265 61.675 -54.3618
19.054347 61.567 -56.0555
19.192423 61.320 -57.4007
19.331499 60.936 -58.2187
19.471583 60.456 -58.4474
19.612682 59.930 -57.5633
19.754804 59.393 -55.4634
19.897956 58.979 -52.3546
20.042144 58.735 -48.0710
20.187378 58.713 -43.5941
20.333664 58.959 -39.5976
20.481010 59.396 -36.4905
20.629424 59.929 -34.8930
20.778913 60.525 -34.5134
20.929486 61.099 -35.2752
21.081150 61.633 -37.0215
21.233912 62.111 -39.3506
21.387782 62.525 -42.2639
21.542767 62.882 -45.4225
21.698874 63.184 -48.7723
21.856113 63.440 -52.1735
22.014492 63.658 -55.4572
22.174018 63.848 -58.6366
22.334700 64.023 -61.5159
22.496546 64.192 -64.1553
22.659566 64.370 -66.4445
22.823766 64.565 -68.4305
22.989157 64.789 -70.1519
23.155745 65.046 -71.6269
23.323542 65.333 -73.0009
23.492554 65.647 -74.2639
23.662790 65.972 -75.5286
23.834261 66.298 -76.7605
24.006973 66.608 -77.9161
24.180938 66.899 -78.9524
24.356163 67.168 -79.6674
24.532658 67.429 -80.0446
24.710431 67.711 -79.8669
24.889493 68.048 -79.2654
25.069853 68.485 -78.2401
25.251519 69.040 -77.2566
25.434502 69.727 -76.5064
25.618811 70.506 -76.5987
25.804456 71.343 -77.5405
25.991445 72.170 -79.6245
26.179790 72.952 -82.6404
26.369500 73.640 -86.5365
26.560584 74.215 -91.0761
26.753053 74.655 -96.0985
26.946917 74.953 -101.2911
27.142185 75.104 -106.6184
27.338869 75.114 -111.5661
27.536977 74.993 -116.1747
27.736522 74.774 -119.8710
27.937512 74.505 -122.6788
28.139959 74.253 -124.2213
28.343872 74.117 -124.8874
28.549264 74.157 -124.7897
28.756143 74.407 -124.9691
28.964522 74.818 -125.8274
29.174411 75.319 -127.8592
29.385821 75.809 -131.0800
29.598763 76.233 -135.2946
29.813248 76.537 -140.2679
30.029287 76.705 -145.5303
30.246891 76.727 -151.0002
30.466073 76.611 -156.1431
30.686842 76.375 -160.8272
30.909212 76.042 -164.8289
31.133193 75.654 -167.9209
31.358797 75.251 -170.1393
31.586035 74.866 -171.4299
31.814921 74.529 -172.0154
32.045465 74.245 -171.9367
32.277680 74.022 -171.2400
32.511577 73.874 -169.8525
32.747169 73.850 -167.7455
32.984469 74.003 -165.1035
33.223488 74.385 -162.3808
33.464239 74.976 -160.4666
33.706735 75.706 -159.8217
33.950987 76.478 -160.6567
34.197010 77.192 -162.8759
34.444816 77.799 -166.0031
34.694417 78.276 -169.6746
34.945827 78.625 -173.5135
35.199059 78.880 -177.0978
35.454126 79.087 179.6786
35.711041 79.294 176.8066
35.969818 79.542 174.1443
36.230470 79.843 171.2879
36.493011 80.171 167.9382
36.757455 80.482 163.9806
37.023814 80.726 159.4103
37.292104 80.860 154.4053
37.562338 80.863 149.3599
37.834530 80.738 144.6272
38.108695 80.516 140.5286
38.384846 80.250 137.3471
38.662999 80.019 135.1802
38.943167 79.904 133.6932
39.225365 79.939 132.2867
39.509608 80.099 130.3978
39.795911 80.321 127.6968
40.084289 80.536 124.1554
40.374756 80.694 119.9978
40.667328 80.781 115.5858
40.962020 80.823 111.2174
41.258848 80.868 106.9755
41.557827 80.967 102.6928
41.858972 81.148 97.9880
42.162299 81.402 92.4011
42.467824 81.682 85.5655
42.775564 81.924 77.3127
43.085533 82.065 67.6687
43.397749 82.060 56.7904
43.712227 81.881 44.9053
44.028983 81.513 32.2450
44.348036 80.958 19.0196
44.669400 80.229 5.4224
44.993093 79.350 -8.3599
45.319131 78.362 -22.1366
45.647532 77.321 -35.6939
45.978313 76.295 -48.7791
46.311491 75.363 -61.0933
46.647083 74.602 -72.3150
46.985107 74.079 -82.1737
47.325581 73.843 -90.5680
47.668521 73.905 -97.6604
48.013947 74.227 -103.8368
48.361876 74.726 -109.4889
48.712326 75.306 -114.7633
49.065315 75.906 -119.4802
49.420863 76.530 -123.2851
49.778987 77.242 -125.9751
50.139706 78.123 -127.8337
50.503039 79.197 -129.6266
50.869005 80.411 -132.1340
51.237623 81.682 -135.6777
51.608912 82.958 -140.1392
51.982891 84.236 -145.3317
52.359580 85.529 -151.3176
52.739000 86.827 -158.4366
53.121168 88.073 -167.0584
53.506106 89.187 -177.3139
53.893833 90.086 170.9566
54.284370 90.707 158.1150
54.677737 91.010 144.6636
55.073955 90.973 131.1854
55.473043 90.599 118.3177
55.875024 89.915 106.7191
56.279917 88.986 96.9789
56.687745 87.919 89.5256
57.098527 86.846 84.2761
57.512287 85.868 80.5552
57.929045 84.998 77.6155
58.348822 84.195 75.2272
58.771642 83.433 73.6639
59.197525 82.758 73.1731
59.626495 82.241 73.4553
60.058573 81.905 73.8264
60.493782 81.710 73.7955
60.932145 81.611 73.3370
61.373685 81.594 72.5016
61.818424 81.654 71.0885
62.266386 81.755 68.7779
62.717593 81.835 65.4849
63.172071 81.841 61.4439
63.629842 81.752 57.0464
64.090930 81.580 52.5878
64.555359 81.352 48.2307
65.023154 81.098 44.0056
65.494339 80.847 39.8499
65.968938 80.627 35.5767
66.446976 80.449 30.8755
66.928478 80.295 25.3770
67.413469 80.123 18.8392
67.901975 79.884 11.2439
68.394021 79.546 2.7297
68.889632 79.111 -6.6495
69.388835 78.596 -16.9901
69.891655 78.027 -28.6262
70.398118 77.427 -41.9425
70.908252 76.832 -57.3513
71.422083 76.309 -75.1498
71.939636 75.934 -95.5630
72.460941 75.733 -118.3480
72.986023 75.628 -142.8759
73.514909 75.449 -168.2420
74.047629 75.008 165.9775
74.584208 74.175 139.1260
75.124676 73.009 108.5962
75.669061 72.122 63.4028
76.217390 72.748 -8.9713
76.769692 74.857 -59.1082
77.325997 77.272 -86.8831
77.886333 79.426 -106.3239
78.450730 81.284 -121.7327
79.019216 82.925 -134.9188
79.591822 84.386 -147.2347
80.168577 85.640 -159.5480
80.749512 86.645 -172.1078
81.334656 87.384 175.2600
81.924040 87.859 162.7781
82.517696 88.066 150.5367
83.115653 87.982 138.6981
83.717943 87.577 127.7595
84.324598 86.851 118.5875
84.935649 85.866 112.1843
85.551128 84.762 109.5652
86.171066 83.800 111.6050
86.795497 83.375 117.9719
87.424453 83.759 125.3538
88.057967 84.787 130.0027
88.696071 86.118 131.2057
89.338800 87.532 129.4404
89.986185 88.889 124.8845
90.638262 90.087 117.9697
91.295065 91.090 109.4708
91.956626 91.913 99.8003
92.622982 92.541 88.7395
93.294166 92.888 76.0808
93.970214 92.841 62.3121
94.651161 92.332 48.6061
95.337042 91.376 36.3804
96.027894 90.074 26.7860
96.723752 88.577 20.2780
97.424652 87.042 16.5690
98.130631 85.582 15.0306
98.841726 84.261 15.1936
99.557974 83.131 17.0581
100.279412 82.293 20.4613
101.006078 81.831 24.0077
101.738010 81.683 26.0889
102.475245 81.687 26.1879
103.217823 81.673 24.2871
103.965782 81.490 21.0157
104.719161 81.086 18.0851
105.477999 80.594 17.1346
106.242336 80.250 17.9164
107.012212 80.187 18.5220
107.787666 80.351 17.2638
108.568740 80.562 13.1252
109.355474 80.596 6.0216
110.147909 80.285 -2.8427
110.946086 79.616 -11.6746
111.750047 78.737 -19.7396
112.559834 77.811 -28.4304
113.375489 76.850 -39.6213
114.197055 75.797 -54.0345
115.024574 74.726 -72.4514
115.858089 73.863 -96.1287
116.697645 73.469 -123.9261
117.543284 73.683 -150.3749
118.395051 74.394 -171.1125
119.252990 75.300 173.6888
120.117147 76.179 162.9786
120.987565 77.091 156.8638
121.864291 78.215 153.8892
122.747370 79.515 150.7484
123.636848 80.816 146.0884
124.532771 81.998 140.0270
125.435187 82.977 132.7908
126.344142 83.720 125.1846
127.259684 84.248 117.8597
128.181860 84.572 110.8792
129.110718 84.687 104.6759
130.046308 84.662 100.2478
130.988677 84.639 97.7755
131.937875 84.721 96.2993
132.893951 84.931 95.1118
133.856956 85.248 93.6158
134.826938 85.581 91.0175
135.803950 85.819 87.5806
136.788041 85.948 84.6829
137.779264 86.097 83.4795
138.777669 86.434 83.4193
139.783309 86.963 82.4127
140.796237 87.512 79.2050
141.816504 87.909 74.4229
142.844165 88.092 69.2800
143.879273 88.073 64.4193
144.921881 87.867 60.2079
145.972045 87.525 57.6560
147.029819 87.252 58.3856
148.095257 87.404 62.4656
149.168417 88.176 66.6554
150.249353 89.359 67.3953
151.338121 90.594 63.8085
152.434780 91.641 56.9432
153.539385 92.414 48.2439
154.651995 92.922 38.7262
155.772667 93.188 28.6597
156.901460 93.204 18.1793
158.038432 92.964 7.7334
159.183644 92.490 -2.1163
160.337154 91.845 -11.0552
161.499023 91.086 -19.7468
162.669312 90.169 -28.9747
163.848081 88.983 -38.5659
165.035392 87.409 -47.5571
166.231306 85.374 -53.7604
167.435887 82.939 -54.0171
168.649196 80.390 -46.2280
169.871298 78.246 -32.2501
171.102255 77.005 -16.9309
172.342133 76.824 -3.3380
173.590995 77.651 10.4440
174.848907 79.185 19.8608
176.115934 80.711 18.2148
177.392143 81.805 10.7639
178.677599 82.385 0.1747
179.972371 82.326 -14.0204
181.276525 81.491 -31.4681
182.590129 79.952 -53.2037
183.913252 78.621 -94.6653
185.245964 79.434 138.3979
186.588332 81.785 101.5347
187.940428 83.916 79.6215
189.302322 85.405 61.6079
190.674085 86.303 45.6525
192.055788 86.688 30.9629
193.447503 86.634 17.6102
194.849303 86.227 5.6881
196.261262 85.530 -4.9042
197.683452 84.601 -13.7798
199.115948 83.535 -21.0251
200.558824 82.422 -27.6658
202.012156 81.338 -35.1892
203.476019 80.380 -46.6431
204.950490 79.633 -68.5537
206.435646 79.139 -110.5723
207.931564 79.152 -171.0518
209.438322 80.216 148.2949
210.955998 82.480 131.9104
212.484672 85.099 120.9019
214.024424 87.217 105.0317
215.575333 88.611 87.5791
217.137481 89.384 71.4434
218.710948 89.725 57.9626
220.295818 89.828 46.6938
221.892172 89.671 35.0417
223.500094 89.058 23.6890
225.119668 88.045 17.7566
226.750978 87.189 20.6409
228.394109 86.915 22.6753
230.049147 86.747 18.3635
231.716178 86.204 14.2954
233.395289 85.393 15.0784
235.086567 84.812 22.0532
236.790102 85.172 34.4243
238.505980 86.792 46.3484
240.234293 89.169 53.6133
241.975130 91.486 50.9644
243.728581 93.119 38.6140
245.494739 93.849 22.8838
247.273695 93.915 10.8994
249.065542 93.905 4.8398
250.870374 94.146 -1.0952
252.688284 94.435 -9.9119
254.519367 94.556 -19.9495
256.363720 94.446 -30.5923
258.221437 94.023 -42.2480
260.092616 93.148 -54.3647
261.977354 91.708 -64.5376
263.875750 89.784 -68.3877
265.787903 87.832 -63.0974
267.713911 86.644 -51.5286
269.653877 86.637 -41.7090
271.607900 87.197 -40.4563
273.576083 87.537 -45.7495
275.558528 87.675 -47.3860
277.555338 88.327 -41.1526
279.566619 89.418 -44.3457
281.592474 90.114 -58.2068
283.633009 89.891 -77.3457
285.688331 88.472 -96.0332
287.758546 86.129 -93.3093
289.843763 84.519 -44.9673
291.944090 84.808 -39.4780
294.059638 85.437 -48.1042
296.190515 85.463 -57.0659
298.336833 85.167 -58.6038
300.498705 85.672 -45.6226
302.676243 87.186 -38.1860
304.869559 88.417 -48.0544
307.078770 88.610 -63.2273
309.303989 88.073 -69.6208
311.545334 88.110 -58.7500
313.802919 89.246 -54.5649
316.076865 90.401 -63.7688
318.367288 91.032 -75.3965
320.674309 91.276 -85.3743
322.998047 91.330 -94.2629
325.338624 91.308 -102.4395
327.696162 91.298 -109.9153
330.070783 91.430 -116.1938
332.462612 91.722 -123.8115
334.871773 91.872 -135.8079
337.298392 91.561 -149.5281
339.742595 90.860 -159.7888
342.204510 90.185 -165.7563
344.684265 89.794 -172.2070
347.181989 89.551 179.3691
349.697813 89.356 171.1240
352.231868 89.352 164.1140
354.784285 89.645 155.8828
357.355198 90.021 143.7136
359.944741 90.111 127.6418
362.553049 89.628 110.1924
365.180258 88.618 96.6733
367.826505 87.566 89.1360
370.491927 87.062 84.5420
373.176665 87.169 76.8508
375.880856 87.287 62.8833
378.604644 86.902 46.4697
381.348169 85.863 31.1980
384.111575 84.274 21.9824
386.895006 82.850 26.5452
389.698607 82.642 35.7852
392.522524 83.218 31.6069
395.366904 83.791 24.8286
398.231895 84.395 18.6589
401.117648 85.109 11.4688
404.024312 85.935 3.1479
406.952038 86.605 -9.9387
409.900981 86.797 -26.1609
412.871292 86.459 -42.4812
415.863128 85.755 -56.1157
418.876643 85.026 -67.0320
421.911996 84.239 -81.8184
424.969344 83.023 -96.4319
428.048847 81.621 -105.5776
431.150666 80.456 -118.0798
434.274961 79.233 -136.6570
437.421897 77.660 -153.9070
440.591636 76.429 -161.7820
443.784345 76.346 175.8735
447.000189 76.624 132.4062
450.239337 77.024 -80.6189
453.501956 77.856 -138.0806
456.788219 79.237 -174.8713
460.098294 81.113 158.3523
463.432356 82.776 131.4268
466.790578 83.950 106.9521
470.173135 84.973 87.5361
473.580203 85.653 65.6140
477.011961 85.435 42.4348
480.468586 84.463 27.7058
483.950259 83.718 25.3301
487.457163 83.809 20.5652
490.989478 84.347 11.0171
494.547390 85.717 9.3198
498.131084 87.809 2.1687
501.740748 89.356 -23.1833
505.376568 89.703 -58.2834
509.038735 88.945 -97.7314
512.727439 87.613 -145.5613
516.442874 86.350 146.1321
520.185232 85.401 74.2036
523.954708 84.538 25.5144
527.751500 83.587 -7.7605
531.575805 82.431 -34.9102
535.427822 80.994 -58.6777
539.307753 79.987 -77.4058
543.215800 80.288 1.7815
547.152165 81.176 -14.7649
551.117055 81.469 -60.1440
555.110677 81.728 -142.4121
559.133237 83.688 94.5352
563.184947 86.287 51.2576
567.266018 87.846 11.4321
571.376661 87.995 -26.8369
575.517092 86.841 -59.6738
579.687526 84.800 -83.4561
583.888181 82.625 -105.1599
588.119275 80.694 -136.8689
592.381030 79.179 166.3655
596.673667 78.885 46.3669
600.997410 79.837 -15.0186
605.352485 80.533 -56.7251
609.739119 80.108 -22.0166
614.157540 78.941 -18.1929
618.607979 78.360 -39.5034
623.090667 79.369 -64.7773
627.605839 81.085 -103.7158
632.153730 83.048 -170.6763
636.734576 85.095 -12.3164
641.348617 86.579 -71.8623
645.996094 87.162 -125.0273
650.677248 87.308 -168.5718
655.392323 87.714 154.4189
660.141566 87.865 116.7188
664.925224 87.186 83.0649
669.743546 85.956 57.4844
674.596784 84.830 38.9829
679.485191 84.454 22.8218
684.409020 84.810 -0.4473
689.368530 85.026 -37.8540
694.363979 84.791 164.0854
699.395626 85.336 75.8853
704.463736 86.929 42.8081
709.568570 87.981 4.7319
714.710396 87.650 -37.7935
719.889483 85.924 -80.0557
725.106099 83.597 -41.3379
730.360516 82.198 0.5059
735.653010 81.480 -36.8433
740.983855 81.463 -54.6206
746.353329 83.186 -73.5747
751.761713 85.118 -132.4878
757.209288 85.796 159.3496
762.696339 85.259 110.3359
768.223151 84.991 89.2729
773.790013 85.563 66.3901
779.397214 86.321 49.3320
785.045047 87.812 72.4131
790.733808 89.079 53.3716
796.463791 89.345 24.5078
802.235296 88.995 -2.7891
808.048623 87.768 -29.9800
813.904077 85.855 -36.3125
819.801961 85.703 -14.4790
825.742584 87.500 -25.6606
831.726255 88.669 -58.0156
837.753287 88.788 -95.2334
843.823992 88.372 -135.6973
849.938689 87.699 -178.0659
856.097695 86.792 142.7021
862.301332 85.973 114.3262
868.549922 85.905 91.9497
874.843793 86.785 78.0303
881.183272 88.577 70.9165
887.568689 90.119 49.7588
894.000378 90.738 22.4351
900.478673 90.397 -5.4199
907.003913 88.951 -27.2393
913.576437 87.003 -35.3232
920.196588 85.890 -46.1392
926.864712 86.029 -69.1543
933.581156 86.539 -116.3296
940.346270 86.720 171.0044
947.160407 87.123 112.1724
954.023921 88.163 76.1587
960.937172 89.245 48.2051
967.900519 89.888 23.9888
974.914325 90.255 2.6680
981.978956 90.301 -21.5352
989.094780 89.361 -49.8315
996.262169 87.124 -63.8276
1003.481495 85.699 -23.1240
1010.753136 87.936 41.5142
1018.077470 90.615 22.3423
1025.454879 91.401 -10.7915
1032.885748 90.249 -35.7915
1040.370463 88.516 -43.2065
1047.909417 87.837 -47.4790
1055.503000 88.009 -58.3506
1063.151610 88.535 -67.5034
1070.855645 88.854 -92.6807
1078.615506 87.956 -131.1836
1086.431599 86.393 178.0928
1094.304330 86.678 44.2056
1102.234110 88.866 13.5693
1110.221353 90.127 -28.1699
1118.266475 89.387 -68.9346
1126.369895 86.902 -95.3555
1134.532035 83.793 -110.2593
1142.753322 81.616 -125.2822
1151.034184 81.894 -4.7153
1159.375052 84.015 -26.5298
1167.776361 86.089 -57.6553
1176.238550 87.261 -100.1392
1184.762060 87.838 -162.2236
1193.347334 87.932 60.9907
1201.994821 87.407 -14.3901
1210.704971 86.560 -60.8770
1219.478238 85.026 -94.0532
1228.315080 82.575 -71.1484
1237.215957 80.369 -72.9268
1246.181334 80.216 12.4375
1255.211678 81.184 -0.1509
1264.307459 81.359 -27.9136
1273.469152 80.619 -39.3013
1282.697235 80.601 -29.3877
1291.992188 81.920 -30.1489
1301.354495 83.759 -9.1685
1310.784647 85.454 -15.3545
1320.283132 86.107 -40.1514
1329.850448 85.725 -61.6660
1339.487093 85.133 -73.2388
1349.193569 85.644 -60.2534
1358.970381 86.802 -66.2715
1368.818041 87.170 -82.9458
1378.737061 87.326 -93.9824
1388.727958 87.130 -119.9712
1398.791253 85.902 -151.6782
1408.927471 83.966 -168.6855
1419.137140 82.021 -75.9004
1429.420793 80.905 -89.6875
1439.778965 80.931 -102.9736
1450.212197 81.174 -69.5127
1460.721033 81.848 -62.2485
1471.306019 82.710 -82.8530
1481.967709 83.591 -103.9170
1492.706658 83.581 -136.9663
1503.523426 82.471 -171.2871
1514.418576 82.301 156.5918
1525.392678 83.329 53.8730
1536.446302 84.458 5.7803
1547.580025 85.567 -27.8813
1558.794428 86.168 -56.3770
1570.090095 86.288 -73.3594
1581.467615 86.689 -78.0400
1592.927581 87.225 -93.2534
1604.470591 86.953 -112.1021
1616.097246 86.006 -120.7163
1627.808153 85.517 -126.4258
1639.603922 85.572 -136.3652
1651.485168 85.476 -148.2241
1663.452510 85.021 -157.1177
1675.506573 84.384 -168.2876
1687.647984 83.693 -177.5029
1699.877377 83.759 175.5923
1712.195390 84.202 153.2954
1724.602663 83.640 116.8311
1737.099845 82.130 67.3989
1749.687587 82.519 -77.1274
1762.366544 85.087 -140.9907
1775.137379 86.790 159.7222
1788.000756 86.771 87.1133
1800.957346 85.922 6.1450
1814.007826 85.615 -57.8091
1827.152874 85.055 -108.4385
1840.393177 83.997 -146.4658
1853.729425 83.256 -134.0654
1867.162312 83.475 -94.3730
1880.692540 84.709 -113.3740
1894.320813 86.105 -134.9604
1908.047843 86.712 -159.9580
1921.874344 86.935 -179.6113
1935.801038 86.881 155.4150
1949.828650 85.466 132.1802
1963.957912 83.389 129.2842
1978.189561 82.567 129.1929
1992.524338 82.789 119.8711
2006.962991 82.820 92.0371
2021.506272 82.117 54.3540
2036.154940 82.054 18.7812
2050.909758 82.990 -31.1675
2065.771495 83.594 -100.6768
2080.740927 84.006 -151.3691
2095.818833 84.854 -38.2344
2111.006001 86.016 -49.5586
2126.303220 86.948 -81.9937
2141.711290 87.619 -112.4443
2157.231013 87.801 -140.0938
2172.863198 88.018 -160.8398
2188.608660 88.343 174.7773
2204.468221 87.730 146.5195
2220.442706 86.306 126.4297
2236.532950 85.426 100.6504
2252.739789 85.293 -112.1309
2269.064070 85.984 -143.2031
2285.506644 86.750 -168.4707
2302.068367 86.691 169.0215
2318.750104 86.281 151.1807
2335.552723 86.222 152.8555
2352.477101 86.587 -150.9873
2369.524119 87.876 -158.1094
2386.694668 89.535 -175.3916
2403.989641 90.463 163.4385
2421.409941 90.239 143.6719
2438.956476 89.057 129.2871
2456.630160 87.711 126.3242
2474.431915 87.568 136.5674
2492.362668 88.481 134.9941
2510.423356 89.025 119.0020
2528.614918 88.640 104.0566
2546.938304 87.746 104.1377
2565.394469 87.176 121.9824
2583.984375 87.372 123.1865
2602.708991 87.700 112.3809
2621.569293 87.719 100.1602
2640.566265 87.092 91.2402
2659.700897 86.313 101.5098
2678.974186 86.593 108.1699
2698.387137 87.776 118.2422
2717.940763 88.969 109.3555
2737.636082 89.116 90.3984
2757.474121 88.044 76.3477
2777.455915 86.729 73.4092
2797.582506 86.343 88.7080
2817.854942 86.952 88.5576
2838.274281 87.495 79.5508
2858.841586 88.028 87.3574
2879.557931 88.756 83.4023
2900.424394 88.674 64.5889
2921.442065 87.350 52.4385
2942.612039 85.815 53.9434
2963.935418 85.255 56.3359
2985.413316 85.798 64.7656
3007.046852 86.490 68.0605
3028.837153 86.365 53.9160
3050.785356 85.557 48.9658
3072.892604 85.151 62.7461
3095.160050 85.781 68.7607
3117.588856 86.639 61.3516
3140.180190 87.145 48.8711
3162.935230 86.909 32.0176
3185.855163 85.744 23.6943
3208.941182 84.515 24.5859
3232.194493 83.318 14.4580
3255.616307 81.510 5.0615
3279.207844 80.129 24.1562
3302.970336 80.879 69.2949
3326.905021 82.171 60.8408
3351.013146 82.469 46.6045
3375.295969 82.629 42.7705
3399.754755 83.294 38.0303
3424.390779 83.620 22.0459
3449.205326 83.296 2.5146
3474.199690 82.541 -22.3896
3499.375173 81.359 -56.0479
3524.733088 80.312 -141.4736
3550.274757 79.580 101.8809
3576.001511 79.408 130.0713
3601.914692 80.504 139.5342
3628.015651 82.158 123.4971
3654.305748 83.450 107.3379
3680.786354 83.878 81.1436
3707.458849 83.280 56.4375
3734.324624 82.369 72.4707
3761.385080 81.958 98.6514
3788.641627 81.541 90.4023
3816.095686 81.509 93.1113
3843.748688 82.837 109.4893
3871.602076 84.416 101.8623
3899.657300 85.243 87.7139
3927.915825 85.479 74.6543
3956.379122 85.185 70.3516
3985.048676 84.918 68.1367
4013.925981 84.742 60.0020
4043.012544 84.353 60.7031
4072.309879 84.031 62.4277
4101.819515 84.097 66.4219
4131.542990 84.766 69.8613
4161.481854 85.328 64.7754
4191.637667 85.762 56.8828
4222.012001 85.932 48.4814
4252.606441 85.847 46.2529
4283.422580 85.860 42.1074
4314.462026 85.786 31.0801
4345.726396 85.092 21.5645
4377.217321 84.161 29.6426
4408.936442 83.657 30.4570
4440.885413 83.116 19.5615
4473.065899 82.007 8.8311
4505.479579 80.405 9.4639
4538.128141 79.562 23.4219
4571.013288 80.309 34.6494
4604.136735 81.188 23.9082
4637.500207 81.199 22.8555
4671.105446 81.338 47.3535
4704.954201 81.832 31.0645
4739.048239 82.235 13.7354
4773.389336 82.916 65.3740
4807.979283 83.415 56.5098
4842.819883 83.063 28.9043
4877.912952 82.106 19.5273
4913.260320 80.832 43.2002
4948.863830 79.708 43.0527
4984.725337 79.181 57.7539
5020.846712 79.493 97.8066
5057.229836 80.487 84.7100
5093.876609 81.125 68.6650
5130.788938 80.845 60.6523
5167.968750 80.047 70.9766
5205.417982 80.281 80.3701
5243.138586 81.248 77.5312
5281.132530 82.025 81.0547
5319.401793 82.980 84.2812
5357.948371 83.569 70.3184
5396.774274 83.387 57.0225
5435.881525 82.961 56.4590
5475.272163 82.923 57.6025
5514.948243 82.917 53.5010
5554.911831 83.414 60.2676
5595.165012 84.786 63.0557
5635.709884 85.864 49.7910
5676.548561 85.697 36.3467
5717.683172 84.874 31.9697
5759.115861 84.139 23.9521
5800.848789 83.602 19.1172
5842.884130 83.627 27.5186
5885.224077 83.635 20.9297
5927.870837 83.081 15.6152
5970.826633 82.699 13.5068
6014.093704 81.939 2.0762
6057.674306 80.744 4.6230
6101.570711 79.922 3.9209
6145.785208 79.284 5.6357
6190.320101 78.758 8.9668
6235.177712 78.518 19.8887
6280.360380 79.372 29.8975
6325.870460 80.711 71.5830
6371.710325 81.410 83.6201
6417.882365 81.333 75.1748
6464.388986 81.339 75.7949
6511.232613 81.909 68.8057
6558.415689 82.095 56.9854
6605.940673 82.318 54.4990
6653.810042 82.823 44.7207
6702.026292 83.049 48.8848
6750.591937 83.285 59.2959
6799.509509 83.073 50.3271
6848.781558 83.104 57.9697
6898.410653 83.385 54.3154
6948.399380 83.258 53.5879
6998.750346 83.653 53.6348
7049.466176 84.173 43.6553
7100.549514 84.189 32.3760
7152.003023 83.737 25.1885
7203.829385 83.098 19.9707
7256.031302 82.811 29.9600
7308.611496 83.651 39.3096
7361.572708 84.341 30.8838
7414.917698 84.413 24.9980
7468.649249 84.685 18.7510
7522.770160 84.894 21.9873
7577.283253 84.699 25.9434
7632.191371 84.000 21.2773
7687.497376 83.343 15.8008
7743.204151 82.112 9.2295
7799.314600 80.791 22.8428
7855.831649 80.566 41.4746
7912.758244 81.076 43.1211
7970.097352 81.532 36.9072
8027.851962 81.670 35.7588
8086.025087 82.343 46.0811
8144.619758 83.547 47.0479
8203.639030 84.576 39.2529
8263.085980 85.070 28.0176
8322.963708 84.983 19.0547
8383.275334 84.869 18.3555
8444.024002 85.162 20.1172
8505.212881 85.388 14.0088
8566.845160 85.059 4.3232
8628.924051 84.398 -3.2598
8691.452792 84.023 -0.3486
8754.434642 84.246 -1.9971
8817.872884 84.328 -9.2178
8881.770826 83.858 -20.5576
8946.131799 82.621 -20.6533
9010.959157 81.575 -3.8125
9076.256282 81.753 7.8408
9142.026576 82.192 7.5518
9208.273470 82.034 23.9180
9275.000415 82.115 34.5781
9342.210891 82.617 29.3906
9409.908403 82.740 18.4072
9478.096478 82.652 20.0342
9546.778672 83.404 23.6689
9615.958566 84.533 19.0068
9685.639765 85.080 8.3076
9755.825904 85.002 3.8369
9826.520640 84.815 1.0889
9897.727659 84.579 -5.0049
9969.450674 84.162 -11.2549
10041.693423 83.715 -12.9287
10114.459673 83.242 -14.5098
10187.753217 82.883 -18.6514
10261.577877 82.466 -30.4062
10335.937500 81.503 -42.4209
10410.835964 79.907 -39.8984
10486.277173 79.050 -27.8955
10562.265060 79.235 -30.4648
10638.803587 79.860 15.8301
10715.896743 80.579 38.0273
10793.548548 80.994 24.6602
10871.763050 80.929 17.4043
10950.544327 81.229 18.7783
11029.896485 81.923 11.6816
11109.823662 82.006 -0.0625
11190.330024 81.639 -3.7549
11271.419768 81.485 -5.8818
11353.097122 81.191 -13.8779
11435.366344 80.186 -18.3242
11518.231722 79.224 -12.2998
11601.697577 78.834 -9.4492
11685.768261 78.366 -8.4873
11770.448155 78.343 0.1729
11855.741674 79.112 6.5010
11941.653265 79.701 2.6260
12028.187408 79.673 -4.7891
12115.348612 79.254 -8.2852
12203.141422 78.742 -11.9160
12291.570415 77.984 -14.4023
12380.640201 77.193 -8.2539
12470.355424 76.718 -2.8369
12560.720760 76.542 3.3281
12651.740920 77.335 19.5020
12743.420650 78.575 20.0479
12835.764729 79.409 13.3506
12928.777972 79.928 9.0488
13022.465227 80.161 4.7500
13116.831378 80.182 2.6436
13211.881345 80.609 8.5361
13307.620084 81.217 10.4707
13404.052584 81.500 8.9062
13501.183875 81.875 7.1992
13599.019019 82.364 1.4014
13697.563116 82.526 -7.9414
13796.821305 82.231 -15.9658
13896.798760 81.769 -21.8838
13997.500692 81.155 -27.4893
14098.932352 80.440 -29.3574
14201.099028 79.931 -31.8936
14304.006046 79.492 -32.7080
14407.658770 79.284 -28.3291
14512.062604 79.181 -31.5732
14617.222992 78.744 -35.9854
14723.145416 78.240 -39.0850
14829.835397 77.673 -43.1895
14937.298497 77.079 -42.6953
15045.540320 76.715 -42.1963
15154.566507 76.214 -45.2861
15264.382743 75.671 -44.2549
15374.994752 75.366 -45.5674
15486.408302 74.885 -48.1348
15598.629201 74.222 -48.8154
15711.663298 73.461 -48.5537
15825.516487 73.124 -39.8008
15940.194703 73.390 -37.2520
16055.703925 73.766 -40.1748
16172.050174 74.062 -48.5283
16289.239516 73.595 -64.1924
16407.278061 72.301 -77.6377
16526.171961 70.919 -91.0527
16645.927415 70.010 -79.5518
16766.550667 70.212 30.1309
16888.048005 71.508 27.8340
17010.425762 72.638 15.2588
17133.690320 72.987 0.6660
17257.848103 72.922 -9.2207
17382.905584 72.499 -15.1260
17508.869284 72.068 -15.3965
17635.745768 71.595 -17.2188
17763.541652 71.086 -15.0498
17892.263597 70.882 -10.0938
18021.918315 71.321 1.6689
18152.512564 72.427 6.1309
18284.053153 73.654 5.2822
18416.546939 74.453 -2.0859
18550.000830 74.719 -11.1338
18684.421783 74.789 -20.7803
18819.816805 74.457 -34.3164
18956.192956 73.520 -47.1572
19093.557344 72.025 -56.9482
19231.917131 70.046 -60.6475
19371.279531 67.779 -56.6973
19511.651807 66.042 -42.4580
19653.041280 65.563 -32.9609
19795.455318 65.377 -32.1025
19938.901348 64.976 -36.1309
