* Measurement data measured by REW V5.31.1
* Source: Scarlett 2i4 USB, MICROPHONE, R, volume: no control
* Format: 512k Log Swept Sine, 1 sweep at -18.0 dBFS with no timing reference
* Dated: May 7, 2024 3:22:49 PM
* REW Settings:
*  C-weighting compensation: Off
*  Target level: 75.0 dB
* Note: ; 
* Measurement: front-l1-r1-p1-l
* Smoothing: 1/48 octave
* Frequency Step: 96 ppo
* Start Frequency: 10.093689 Hz
*
* Freq(Hz) SPL(dB) Phase(degrees)
10.093689 41.947 90.2064
10.166832 42.306 86.1514
10.240505 42.738 81.7859
10.314712 43.182 77.3508
10.389457 43.617 72.9815
10.464743 44.002 68.6517
10.540575 44.308 63.9591
10.616956 44.560 59.0782
10.693891 44.764 54.2449
10.771383 44.922 49.6307
10.849437 45.032 44.8785
10.928057 45.093 39.8241
11.007246 45.102 34.7331
11.087009 45.058 29.8718
11.167350 44.960 25.1662
11.248273 44.809 20.1484
11.329783 44.595 15.0311
11.411883 44.310 10.1313
11.494578 43.950 5.6000
11.577873 43.523 0.9011
11.661771 43.006 -3.8574
11.746277 42.369 -8.3308
11.831395 41.596 -12.1643
11.917130 40.694 -15.7194
12.003487 39.646 -18.8850
12.090469 38.403 -21.1632
12.178081 36.815 -21.5956
12.266329 34.831 -19.1103
12.355216 32.926 -11.9108
12.444747 31.843 2.1239
12.534926 32.101 22.8685
12.625760 33.352 42.5267
12.717251 34.961 53.7829
12.809406 36.496 58.1762
12.902228 38.014 58.8384
12.995723 39.515 57.6470
13.089895 40.860 55.4754
13.184750 41.950 52.5481
13.280292 42.827 48.8782
13.376526 43.558 45.0170
13.473458 44.193 41.2844
13.571093 44.730 37.3163
13.669434 45.170 33.1809
13.768489 45.536 29.2491
13.868261 45.840 25.5860
13.968756 46.075 21.8494
14.069979 46.258 18.2679
14.171936 46.404 15.0776
14.274632 46.507 12.0799
14.378072 46.582 9.2577
14.482261 46.648 6.7308
14.587206 46.706 4.5419
14.692910 46.763 2.5821
14.799381 46.835 0.7668
14.906624 46.931 -0.8549
15.014643 47.048 -2.2977
15.123446 47.188 -3.7549
15.233036 47.353 -5.2886
15.343421 47.539 -6.8195
15.454606 47.732 -8.4612
15.566596 47.924 -10.3012
15.679398 48.113 -12.2779
15.793018 48.285 -14.3327
15.907460 48.430 -16.5042
16.022732 48.548 -18.8059
16.138840 48.633 -21.0534
16.255788 48.679 -23.2401
16.373585 48.689 -25.4178
16.492234 48.669 -27.3721
16.611744 48.618 -29.0794
16.732119 48.545 -30.5743
16.853367 48.469 -31.7299
16.975494 48.392 -32.4925
17.098505 48.331 -32.9381
17.222408 48.312 -33.1095
17.347209 48.336 -32.9324
17.472914 48.414 -32.6326
17.599530 48.556 -32.3280
17.727063 48.757 -31.9832
17.855521 49.002 -31.8504
17.984909 49.289 -31.9255
18.115235 49.603 -32.2140
18.246506 49.925 -32.7915
18.378727 50.254 -33.6084
18.511907 50.576 -34.6204
18.646052 50.887 -35.8290
18.781169 51.184 -37.1848
18.917265 51.463 -38.6295
19.054347 51.724 -40.1822
19.192423 51.965 -41.7592
19.331499 52.185 -43.3767
19.471583 52.384 -44.9868
19.612682 52.559 -46.5255
19.754804 52.712 -48.0220
19.897956 52.845 -49.3343
20.042144 52.957 -50.4953
20.187378 53.062 -51.4123
20.333664 53.164 -52.0159
20.481010 53.281 -52.3477
20.629424 53.433 -52.3735
20.778913 53.628 -52.1366
20.929486 53.887 -51.8574
21.081150 54.212 -51.5003
21.233912 54.594 -51.4094
21.387782 55.027 -51.5789
21.542767 55.481 -52.1271
21.698874 55.935 -53.1293
21.856113 56.369 -54.4366
22.014492 56.760 -56.0567
22.174018 57.102 -57.8299
22.334700 57.385 -59.5668
22.496546 57.617 -61.2450
22.659566 57.811 -62.5595
22.823766 57.983 -63.5777
22.989157 58.171 -64.1362
23.155745 58.392 -64.3175
23.323542 58.682 -64.3213
23.492554 59.044 -64.2081
23.662790 59.471 -64.4055
23.834261 59.945 -64.8722
24.006973 60.424 -65.8566
24.180938 60.886 -67.2114
24.356163 61.295 -68.8350
24.532658 61.645 -70.5736
24.710431 61.932 -72.0903
24.889493 62.181 -73.2979
25.069853 62.427 -73.8495
25.251519 62.727 -73.9102
25.434502 63.138 -73.3826
25.618811 63.693 -72.9758
25.804456 64.402 -72.8018
25.991445 65.209 -73.7110
26.179790 66.070 -75.5616
26.369500 66.901 -78.6972
26.560584 67.663 -82.7468
26.753053 68.307 -87.6993
26.946917 68.814 -93.1045
27.142185 69.167 -98.9969
27.338869 69.360 -104.7595
27.536977 69.390 -110.5189
27.736522 69.270 -115.5811
27.937512 69.024 -119.9583
28.139959 68.691 -123.0970
28.343872 68.364 -124.9769
28.549264 68.121 -125.4042
28.756143 68.080 -125.0462
28.964522 68.262 -124.5484
29.174411 68.648 -124.7256
29.385821 69.121 -126.2096
29.598763 69.595 -128.8998
29.813248 69.972 -132.7327
30.029287 70.209 -137.1086
30.246891 70.283 -141.8936
30.466073 70.190 -146.3955
30.686842 69.955 -150.3551
30.909212 69.611 -153.4209
31.133193 69.238 -155.2370
31.358797 68.917 -155.9416
31.586035 68.721 -155.6376
31.814921 68.695 -155.1424
32.045465 68.804 -154.9173
32.277680 68.991 -155.3018
32.511577 69.174 -156.3295
32.747169 69.313 -157.6231
32.984469 69.401 -158.9314
33.223488 69.464 -159.8616
33.464239 69.558 -160.3301
33.706735 69.728 -160.5083
33.950987 70.005 -160.6643
34.197010 70.371 -161.3276
34.444816 70.775 -162.7109
34.694417 71.165 -164.8286
34.945827 71.494 -167.5954
35.199059 71.733 -170.6894
35.454126 71.885 -173.8522
35.711041 71.960 -176.9047
35.969818 71.982 -179.6905
36.230470 71.981 177.8134
36.493011 71.971 175.5013
36.757455 71.955 173.2692
37.023814 71.925 171.0189
37.292104 71.861 168.7118
37.562338 71.741 166.4549
37.834530 71.558 164.4232
38.108695 71.315 162.8193
38.384846 71.033 161.8590
38.662999 70.749 161.7079
38.943167 70.515 162.3481
39.225365 70.370 163.5540
39.509608 70.330 164.9779
39.795911 70.376 166.2878
40.084289 70.465 167.3278
40.374756 70.547 168.2298
40.667328 70.604 169.4564
40.962020 70.681 171.6477
41.258848 70.901 175.2265
41.557827 71.419 179.8961
41.858972 72.309 -175.5933
42.162299 73.507 -172.7736
42.467824 74.844 -172.4627
42.775564 76.160 -174.5903
43.085533 77.356 -178.6444
43.397749 78.389 175.9452
43.712227 79.252 169.6502
44.028983 79.950 162.8114
44.348036 80.493 155.6599
44.669400 80.890 148.3628
44.993093 81.146 141.0687
45.319131 81.263 133.9428
45.647532 81.252 127.1862
45.978313 81.132 121.0252
46.311491 80.939 115.6601
46.647083 80.727 111.1735
46.985107 80.552 107.4362
47.325581 80.448 104.1033
47.668521 80.410 100.7704
48.013947 80.396 97.2070
48.361876 80.359 93.4836
48.712326 80.280 89.9118
49.065315 80.185 86.8472
49.420863 80.140 84.4339
49.778987 80.213 82.4189
50.139706 80.434 80.2261
50.503039 80.771 77.3086
50.869005 81.162 73.4406
51.237623 81.561 68.7127
51.608912 81.956 63.3028
51.982891 82.362 57.2404
52.359580 82.789 50.3195
52.739000 83.217 42.2060
53.121168 83.591 32.6429
53.506106 83.838 21.5878
53.893833 83.887 9.1805
54.284370 83.681 -4.3052
54.677737 83.175 -18.4984
55.073955 82.336 -32.9750
55.473043 81.144 -47.2678
55.875024 79.589 -60.8715
56.279917 77.681 -73.2534
56.687745 75.462 -83.8744
57.098527 73.021 -92.5588
57.512287 70.497 -100.0698
57.929045 68.030 -108.3334
58.348822 65.711 -119.9001
58.771642 63.649 -137.4082
59.197525 62.168 -162.3394
59.626495 61.791 168.7560
60.058573 62.610 143.4575
60.493782 64.092 123.9421
60.932145 65.708 107.9230
61.373685 67.195 93.3808
61.818424 68.451 79.4504
62.266386 69.453 66.0712
62.717593 70.218 53.4469
63.172071 70.790 41.9389
63.629842 71.231 31.8588
64.090930 71.608 23.2390
64.555359 71.982 15.8599
65.023154 72.383 9.2485
65.494339 72.805 2.8966
65.968938 73.227 -3.5773
66.446976 73.638 -10.3458
66.928478 74.052 -17.5137
67.413469 74.505 -25.2629
67.901975 75.024 -33.8480
68.394021 75.614 -43.4536
68.889632 76.260 -53.9537
69.388835 76.948 -64.8948
69.891655 77.681 -75.7307
70.398118 78.472 -86.0572
70.908252 79.319 -95.8514
71.422083 80.186 -105.3986
71.939636 81.004 -115.0054
72.460941 81.700 -124.8059
72.986023 82.227 -134.7260
73.514909 82.569 -144.5403
74.047629 82.750 -154.0562
74.584208 82.823 -163.2085
75.124676 82.854 -172.2031
75.669061 82.890 178.4998
76.217390 82.930 168.3766
76.769692 82.926 157.1917
77.325997 82.818 145.0409
77.886333 82.552 132.3022
78.450730 82.089 119.2654
79.019216 81.376 106.0378
79.591822 80.318 92.6512
80.168577 78.772 79.1885
80.749512 76.583 65.9830
81.334656 73.825 54.0449
81.924040 72.093 87.9407
82.517696 73.734 -153.6460
83.115653 76.700 -163.2631
83.717943 79.216 -174.0066
84.324598 81.086 174.4053
84.935649 82.376 162.4381
85.551128 83.187 150.8402
86.171066 83.647 140.3303
86.795497 83.901 131.2681
87.424453 84.076 123.4924
88.057967 84.245 116.5308
88.696071 84.433 109.9498
89.338800 84.640 103.5150
89.986185 84.869 97.1597
90.638262 85.141 90.7961
91.295065 85.477 84.0203
91.956626 85.843 76.0591
92.622982 86.129 66.2750
93.294166 86.184 54.7421
93.970214 85.891 42.2966
94.651161 85.208 30.1910
95.337042 84.183 19.6367
96.027894 82.937 11.2980
96.723752 81.607 5.0267
97.424652 80.295 0.2632
98.130631 79.055 -3.4489
98.841726 77.921 -6.6097
99.557974 76.890 -9.8882
100.279412 75.910 -13.7600
101.006078 74.901 -18.3496
101.738010 73.781 -23.4268
102.475245 72.500 -28.3129
103.217823 71.080 -32.2782
103.965782 69.611 -35.5778
104.719161 68.134 -39.6285
105.477999 66.548 -45.0734
106.242336 64.764 -50.2858
107.012212 63.030 -53.6937
107.787666 62.020 -58.3838
108.568740 62.265 -69.0122
109.355474 63.631 -85.2443
110.147909 65.535 -104.2651
110.946086 67.410 -123.3407
111.750047 69.042 -140.0886
112.559834 70.508 -153.3076
113.375489 71.919 -163.7899
114.197055 73.240 -173.3848
115.024574 74.381 177.2443
115.858089 75.344 168.7325
116.697645 76.208 161.4449
117.543284 77.018 154.7157
118.395051 77.720 147.8069
119.252990 78.246 140.9658
120.117147 78.613 135.1733
120.987565 78.948 131.2971
121.864291 79.423 129.0695
122.747370 80.103 126.9619
123.636848 80.911 123.6649
124.532771 81.722 118.8254
125.435187 82.426 112.5382
126.344142 82.955 105.3990
127.259684 83.316 98.3754
128.181860 83.598 92.1753
129.110718 83.910 86.6534
130.046308 84.284 80.7557
130.988677 84.635 73.5134
131.937875 84.845 64.9722
132.893951 84.858 55.8875
133.856956 84.695 46.7299
134.826938 84.381 37.2421
135.803950 83.885 27.0076
136.788041 83.131 15.9088
137.779264 82.017 4.1495
138.777669 80.433 -7.7839
139.783309 78.279 -19.5562
140.796237 75.496 -30.8718
141.816504 72.564 -34.8501
142.844165 71.736 106.5638
143.879273 73.503 101.3069
144.921881 75.468 92.4077
145.972045 76.922 84.5820
147.029819 77.958 77.9521
148.095257 78.683 71.7063
149.168417 79.139 65.7521
150.249353 79.374 60.4456
151.338121 79.473 56.3223
152.434780 79.603 54.1014
153.539385 79.912 52.2489
154.651995 80.257 47.5199
155.772667 80.301 39.7239
156.901460 79.843 32.0480
158.038432 78.987 28.2338
159.183644 78.092 29.6727
160.337154 77.547 34.2057
161.499023 77.546 39.4344
162.669312 78.100 44.3179
163.848081 78.985 45.4880
165.035392 79.772 41.2671
166.231306 80.147 34.0059
167.435887 80.057 26.9473
168.649196 79.611 21.5934
169.871298 78.938 18.6348
171.102255 78.238 19.0743
172.342133 77.737 21.5641
173.590995 77.512 24.3229
174.848907 77.532 26.7358
176.115934 77.816 29.8827
177.392143 78.438 33.1837
178.677599 79.263 33.4312
179.972371 79.998 29.9911
181.276525 80.474 24.6580
182.590129 80.717 19.3917
183.913252 80.916 15.6252
185.245964 81.279 12.5422
186.588332 81.736 6.5437
187.940428 81.957 -3.4950
189.302322 81.692 -15.5378
190.674085 80.864 -27.8315
192.055788 79.442 -39.5005
193.447503 77.383 -48.9556
194.849303 74.724 -54.4901
196.261262 71.900 -51.4832
197.683452 70.885 23.7797
199.115948 72.653 55.2891
200.558824 74.609 46.2155
202.012156 75.611 33.7721
203.476019 75.730 24.7195
204.950490 75.565 24.1895
206.435646 76.112 33.4390
207.931564 77.713 42.0618
209.438322 79.552 39.9990
210.955998 80.830 28.7008
212.484672 81.200 13.5800
214.024424 80.646 0.2756
215.575333 79.509 -4.9869
217.137481 78.689 1.3693
218.710948 78.993 9.0131
220.295818 79.935 7.3804
221.892172 80.625 -1.7977
223.500094 80.613 -14.3524
225.119668 79.825 -25.3813
226.750978 78.466 -31.7322
228.394109 76.794 -34.7727
230.049147 75.037 -32.0426
231.716178 74.050 -12.6691
233.395289 74.752 7.5948
235.086567 76.059 7.8645
236.790102 76.691 -2.2780
238.505980 76.262 -13.5259
240.234293 75.155 -13.3501
241.975130 74.906 12.7764
243.728581 76.339 29.5615
245.494739 78.119 28.1180
247.273695 79.482 21.6350
249.065542 80.522 16.0248
250.870374 81.459 10.9574
252.688284 82.258 3.8455
254.519367 82.804 -4.5497
256.363720 83.121 -12.5009
258.221437 83.256 -20.6157
260.092616 83.110 -30.0201
261.977354 82.573 -38.7236
263.875750 81.867 -41.9181
265.787903 81.642 -38.4210
267.713911 82.136 -38.3114
269.653877 82.704 -46.5641
271.607900 82.811 -58.4188
273.576083 82.398 -69.7007
275.558528 81.559 -80.2424
277.555338 80.308 -89.3724
279.566619 78.793 -93.5259
281.592474 77.368 -95.6232
283.633009 76.004 -103.3914
285.688331 74.239 -115.8661
287.758546 72.293 -117.0867
289.843763 72.135 -6.7721
291.944090 74.104 -8.6667
294.059638 76.245 -18.4298
296.190515 77.802 -30.3125
298.336833 78.572 -44.5845
300.498705 78.470 -58.9023
302.676243 77.643 -68.0156
304.869559 76.928 -63.2382
307.078770 77.702 -47.8833
309.303989 79.722 -43.4618
311.545334 81.761 -50.9600
313.802919 83.265 -64.9971
316.076865 84.141 -81.6404
318.367288 84.454 -98.7452
320.674309 84.263 -115.5508
322.998047 83.609 -130.8662
325.338624 82.644 -142.4867
327.696162 81.777 -148.8607
330.070783 81.422 -154.3047
332.462612 81.363 -164.6431
334.871773 81.054 -178.4989
337.298392 80.316 169.3917
339.742595 79.613 164.7234
342.204510 79.666 163.1268
344.684265 80.239 153.9030
347.181989 80.600 139.1577
349.697813 80.502 124.0486
352.231868 80.104 111.4580
354.784285 79.779 102.5553
357.355198 79.782 93.7869
359.944741 79.859 81.0693
362.553049 79.664 66.9047
365.180258 79.221 54.4244
367.826505 78.641 41.5771
370.491927 77.655 25.4060
373.176665 75.842 11.4863
375.880856 73.471 17.5890
378.604644 72.462 50.1370
381.348169 74.105 64.7854
384.111575 76.606 64.6250
386.895006 78.662 53.3523
389.698607 79.924 36.1704
392.522524 80.490 18.6963
395.366904 80.548 1.7402
398.231895 80.051 -16.1636
401.117648 78.853 -31.9763
404.024312 77.207 -37.4280
406.952038 75.946 -35.4132
409.900981 75.301 -41.0601
412.871292 74.735 -49.2037
415.863128 74.027 -57.6482
418.876643 73.116 -65.3624
421.911996 72.325 -65.6396
424.969344 71.920 -71.0471
428.048847 71.282 -84.4312
431.150666 70.692 -84.8650
434.274961 71.717 -69.1587
437.421897 73.692 -79.4170
440.591636 75.089 -105.0474
443.784345 75.638 -133.5601
447.000189 75.717 -159.5076
450.239337 75.939 178.8057
453.501956 76.626 158.4102
456.788219 77.377 134.9119
460.098294 77.621 109.0491
463.432356 77.101 84.8550
466.790578 75.971 66.7803
470.173135 74.591 53.3064
473.580203 73.020 40.9290
477.011961 71.451 36.1516
480.468586 71.385 64.0432
483.950259 73.207 85.2847
487.457163 74.846 71.3340
490.989478 75.530 53.6187
494.547390 75.652 41.8994
498.131084 75.827 34.3699
501.740748 76.067 23.5696
505.376568 76.039 9.8599
509.038735 75.546 -5.0588
512.727439 74.602 -20.3552
516.442874 73.263 -38.2495
520.185232 71.874 -62.2385
523.954708 71.579 -111.6475
527.751500 72.989 159.0518
531.575805 74.560 106.0818
535.427822 75.228 72.7734
539.307753 75.405 53.0808
543.215800 76.000 41.7285
547.152165 77.400 33.5554
551.117055 78.928 17.3325
555.110677 79.476 -11.7158
559.133237 78.749 -44.5471
563.184947 77.416 -80.3574
567.266018 76.551 -130.7942
571.376661 76.655 164.2080
575.517092 77.138 111.9407
579.687526 77.399 75.8311
583.888181 77.343 49.5110
588.119275 76.981 27.9297
592.381030 76.218 8.2634
596.673667 74.931 -10.9739
600.997410 72.940 -30.9692
605.352485 70.171 -41.0178
609.739119 67.829 48.7993
614.157540 68.008 60.0649
618.607979 69.491 52.8337
623.090667 71.347 51.7661
627.605839 73.736 52.7046
632.153730 75.736 35.4954
636.734576 76.455 4.1826
641.348617 75.558 -34.3130
645.996094 73.295 -82.2141
650.677248 71.065 99.1025
655.392323 71.605 108.5198
660.141566 74.079 105.3892
664.925224 76.120 89.0413
669.743546 77.553 75.2278
674.596784 78.922 65.9121
679.485191 80.149 53.0830
684.409020 80.848 36.2720
689.368530 81.045 19.6438
694.363979 80.700 -0.1924
699.395626 79.388 -22.6479
704.463736 76.858 -39.5657
709.568570 73.474 -22.8818
714.710396 71.064 16.8298
719.889483 71.599 44.0044
725.106099 73.585 58.7305
730.360516 74.886 45.3809
735.653010 75.204 31.9871
740.983855 75.278 21.9829
746.353329 75.720 12.0952
751.761713 76.989 81.4973
757.209288 78.693 84.7927
762.696339 80.126 68.8572
768.223151 81.590 60.7332
773.790013 82.907 48.6550
779.397214 83.487 32.2332
785.045047 83.324 21.5203
790.733808 83.312 21.0037
796.463791 83.843 16.0408
802.235296 84.597 9.3096
808.048623 85.452 0.6179
813.904077 86.179 -11.6082
819.801961 86.618 -26.5808
825.742584 86.669 -43.8616
831.726255 86.227 -63.6021
837.753287 85.172 -84.8633
843.823992 83.414 -106.7024
849.938689 81.067 -123.4692
856.097695 79.474 -142.5405
862.301332 80.265 -178.2820
868.549922 82.625 132.7539
874.843793 84.742 85.6072
881.183272 86.032 46.3088
887.568689 86.582 14.0623
894.000378 86.605 -13.5476
900.478673 86.167 -38.9143
907.003913 85.295 -63.5127
913.576437 83.851 -89.9717
920.196588 81.617 -118.1375
926.864712 78.690 -153.2507
933.581156 75.850 143.2822
940.346270 75.502 77.7322
947.160407 77.565 48.7532
954.023921 79.195 22.3564
960.937172 79.608 -0.4131
967.900519 79.533 -11.7510
974.914325 79.796 -19.8535
981.978956 79.658 -37.4141
989.094780 78.473 -52.4395
996.262169 77.893 -27.1436
1003.481495 79.852 6.2979
1010.753136 82.142 -8.0552
1018.077470 83.281 -32.1123
1025.454879 82.994 -56.6074
1032.885748 81.432 -73.8125
1040.370463 79.321 -78.3721
1047.909417 77.907 -75.2134
1055.503000 77.721 -74.5347
1063.151610 78.365 -60.9619
1070.855645 78.845 -71.6768
1078.615506 77.848 -89.5977
1086.431599 76.322 -65.9248
1094.304330 76.965 -44.4521
1102.234110 78.953 -51.6094
1110.221353 80.286 -70.8311
1118.266475 80.789 -91.1611
1126.369895 81.293 -106.5127
1134.532035 82.250 -124.4219
1142.753322 82.504 -157.0815
1151.034184 81.226 167.5459
1159.375052 79.284 139.9585
1167.776361 78.583 111.7202
1176.238550 78.827 74.4556
1184.762060 78.210 37.9985
1193.347334 76.762 16.0361
1201.994821 75.562 -0.2817
1210.704971 74.959 -11.5142
1219.478238 74.874 -20.0464
1228.315080 74.282 -34.0024
1237.215957 72.840 -43.2510
1246.181334 71.352 -47.1992
1255.211678 71.650 -29.6284
1264.307459 74.616 32.3789
1273.469152 77.758 34.3125
1282.697235 79.674 10.7329
1291.992188 80.624 -10.9253
1301.354495 81.204 -28.6865
1310.784647 81.499 -46.1826
1320.283132 81.604 -61.8589
1329.850448 81.559 -82.0918
1339.487093 80.689 -109.3350
1349.193569 78.459 -135.2739
1358.970381 74.982 -128.9927
1368.818041 71.583 -82.7251
1378.737061 70.324 -86.6558
1388.727958 72.269 -4.1963
1398.791253 75.427 5.8735
1408.927471 77.380 -19.7764
1419.137140 78.208 -32.5698
1429.420793 78.871 -41.0303
1439.778965 78.800 -64.9287
1450.212197 77.867 -70.2808
1460.721033 77.927 -27.3003
1471.306019 79.184 -26.2339
1481.967709 80.023 -47.6108
1492.706658 80.220 -65.9614
1503.523426 80.072 -77.1831
1514.418576 79.929 -86.2578
1525.392678 79.584 -105.4297
1536.446302 79.389 -44.8369
1547.580025 80.688 -21.5034
1558.794428 82.619 -38.1216
1570.090095 83.759 -59.7720
1581.467615 84.207 -78.4883
1592.927581 84.041 -95.4668
1604.470591 83.665 -105.9727
1616.097246 83.670 -114.7925
1627.808153 83.971 -126.8691
1639.603922 84.358 -142.0542
1651.485168 84.235 -166.2373
1663.452510 82.881 166.5195
1675.506573 80.922 139.1226
1687.647984 80.111 37.5400
1699.877377 80.608 -62.8804
1712.195390 81.434 -95.4214
1724.602663 82.417 -116.4360
1737.099845 83.048 -138.4756
1749.687587 82.614 -161.0400
1762.366544 81.465 -175.6133
1775.137379 80.359 168.6621
1788.000756 78.952 153.2178
1800.957346 77.672 -179.3037
1814.007826 78.193 -118.4961
1827.152874 79.675 -127.6597
1840.393177 80.815 -146.0708
1853.729425 81.949 -157.9102
1867.162312 83.238 -168.0669
1880.692540 83.734 170.6069
1894.320813 82.968 150.3096
1908.047843 81.825 141.9497
1921.874344 81.715 146.8530
1935.801038 82.125 132.0889
1949.828650 81.087 106.9990
1963.957912 78.484 115.3721
1978.189561 76.305 148.5083
1992.524338 76.427 148.6523
2006.962991 77.796 153.9219
2021.506272 79.497 155.2246
2036.154940 81.014 137.7251
2050.909758 82.260 118.3853
2065.771495 82.631 87.9751
2080.740927 81.324 47.6719
2095.818833 79.306 -10.7446
2111.006001 79.228 -112.7266
2126.303220 80.719 -162.6348
2141.711290 81.811 162.9746
2157.231013 81.788 134.2070
2172.863198 80.880 111.6523
2188.608660 79.401 94.6685
2204.468221 77.954 94.2896
2220.442706 77.657 122.8281
2236.532950 78.492 119.2227
2252.739789 79.702 109.3550
2269.064070 80.896 96.7646
2285.506644 81.503 76.2783
2302.068367 81.373 53.9756
2318.750104 80.867 25.1670
2335.552723 79.858 -14.2534
2352.477101 78.264 -61.9312
2369.524119 77.808 -138.4058
2386.694668 79.853 -176.3823
2403.989641 81.498 142.7954
2421.409941 81.301 101.5557
2438.956476 79.523 71.6455
2456.630160 76.939 53.7529
2474.431915 75.182 59.9609
2492.362668 76.103 104.8491
2510.423356 77.977 131.1831
2528.614918 79.753 129.9604
2546.938304 81.084 100.4897
2565.394469 82.008 69.6621
2583.984375 82.365 33.0684
2602.708991 81.538 -11.4014
2621.569293 79.841 -64.8521
2640.566265 78.623 -125.8970
2659.700897 78.822 -178.2231
2678.974186 79.035 142.8145
2698.387137 78.614 112.0010
2717.940763 77.280 91.2036
2737.636082 76.258 106.3589
2757.474121 76.835 116.0518
2777.455915 77.543 96.4639
2797.582506 77.206 72.8613
2817.854942 75.642 58.6245
2838.274281 74.135 60.6323
2858.841586 74.154 64.6094
2879.557931 75.115 56.8696
2900.424394 75.974 34.0693
2921.442065 77.186 175.5518
2942.612039 79.069 144.0332
2963.935418 79.922 109.4170
2985.413316 79.325 76.9800
3007.046852 77.544 63.4019
3028.837153 76.637 130.9019
3050.785356 78.151 126.0112
3072.892604 79.473 101.9658
3095.160050 79.361 74.6646
3117.588856 78.006 53.0576
3140.180190 76.718 54.4800
3162.935230 76.742 94.5347
3185.855163 76.739 76.8394
3208.941182 75.530 76.7573
3232.194493 74.688 110.2568
3255.616307 75.499 108.1514
3279.207844 76.603 102.4238
3302.970336 77.590 103.2012
3326.905021 78.441 91.6313
3351.013146 78.529 75.8950
3375.295969 77.962 64.4585
3399.754755 77.052 49.3794
3424.390779 76.583 62.0898
3449.205326 77.415 119.0337
3474.199690 77.916 95.3208
3499.375173 77.108 72.8481
3524.733088 76.022 76.0518
3550.274757 76.792 108.8906
3576.001511 78.179 101.6030
3601.914692 78.445 83.0713
3628.015651 77.823 71.7656
3654.305748 77.217 71.5034
3680.786354 76.905 71.9438
3707.458849 77.056 72.5942
3734.324624 76.980 64.3037
3761.385080 76.234 71.1978
3788.641627 76.415 85.0317
3816.095686 77.248 81.6948
3843.748688 78.374 99.5059
3871.602076 79.228 92.3999
3899.657300 79.027 75.1416
3927.915825 78.205 64.4497
3956.379122 77.924 68.6787
3985.048676 78.391 76.3735
4013.925981 78.107 67.7163
4043.012544 77.245 66.3105
4072.309879 77.354 78.0645
4101.819515 78.502 78.3999
4131.542990 79.351 74.6284
4161.481854 79.469 67.4756
4191.637667 79.130 59.5098
4222.012001 78.893 54.9141
4252.606441 79.170 54.0371
4283.422580 79.413 45.6338
4314.462026 78.691 35.5532
4345.726396 77.673 41.9585
4377.217321 77.672 52.4370
4408.936442 78.017 52.2534
4440.885413 77.706 41.7734
4473.065899 76.896 41.7998
4505.479579 76.507 40.5859
4538.128141 76.162 37.1357
4571.013288 75.660 35.7788
4604.136735 75.207 37.9424
4637.500207 74.973 49.5298
4671.105446 75.201 56.9863
4704.954201 75.343 51.4204
4739.048239 75.086 52.6157
4773.389336 75.542 56.5068
4807.979283 76.214 44.4619
4842.819883 75.950 27.8950
4877.912952 75.000 57.1177
4913.260320 74.656 77.4160
4948.863830 74.915 73.1206
4984.725337 75.827 72.1172
5020.846712 77.158 67.0498
5057.229836 77.695 52.0762
5093.876609 76.920 43.9448
5130.788938 76.010 52.0718
5167.968750 76.108 55.4858
5205.417982 76.388 50.1836
5243.138586 76.434 53.2876
5281.132530 76.822 62.8765
5319.401793 77.359 53.9844
5357.948371 76.950 42.3359
5396.774274 75.982 39.3848
5435.881525 75.691 47.2969
5475.272163 76.330 53.0547
5514.948243 76.872 51.9888
5554.911831 77.399 49.5830
5595.165012 77.649 36.9399
5635.709884 77.004 26.8965
5676.548561 76.198 29.3691
5717.683172 75.852 30.4678
5759.115861 75.807 29.9692
5800.848789 75.670 47.0581
5842.884130 75.450 47.1445
5885.224077 75.037 38.9561
5927.870837 74.656 36.9175
5970.826633 74.585 39.5430
6014.093704 74.753 46.1489
6057.674306 75.232 46.9087
6101.570711 75.976 43.0898
6145.785208 76.467 33.0698
6190.320101 76.264 28.8159
6235.177712 75.893 34.6577
6280.360380 75.358 29.2471
6325.870460 74.909 37.1245
6371.710325 75.235 49.2896
6417.882365 75.647 40.4316
6464.388986 75.495 33.0225
6511.232613 75.186 28.5903
6558.415689 74.714 25.5840
6605.940673 74.307 39.3462
6653.810042 74.631 43.8970
6702.026292 75.050 43.3140
6750.591937 75.480 46.5488
6799.509509 75.922 39.2412
6848.781558 75.844 31.5654
6898.410653 75.750 33.5879
6948.399380 75.920 29.1470
6998.750346 76.144 27.9146
7049.466176 76.498 23.2651
7100.549514 75.918 13.5322
7152.003023 74.492 23.9707
7203.829385 73.695 32.9316
7256.031302 74.007 35.6509
7308.611496 74.721 31.5518
7361.572708 74.949 21.1133
7414.917698 74.744 34.5156
7468.649249 75.029 53.2788
7522.770160 75.874 54.7246
7577.283253 76.603 43.3193
7632.191371 76.161 30.3599
7687.497376 75.250 36.2969
7743.204151 75.394 46.0015
7799.314600 76.595 50.5537
7855.831649 77.727 43.5679
7912.758244 77.769 30.9888
7970.097352 77.302 27.8130
8027.851962 77.337 35.2471
8086.025087 78.101 37.7383
8144.619758 78.334 24.0791
8203.639030 77.571 16.5679
8263.085980 76.987 24.9551
8322.963708 77.236 30.2515
8383.275334 77.750 26.1665
8444.024002 77.830 17.8789
8505.212881 77.444 12.2466
8566.845160 77.012 13.8281
8628.924051 77.397 21.3320
8691.452792 77.936 13.3394
8754.434642 77.520 2.8867
8817.872884 76.711 4.0889
8881.770826 76.616 13.1821
8946.131799 76.891 10.8647
9010.959157 76.658 6.8755
9076.256282 76.168 7.9531
9142.026576 76.127 15.1753
9208.273470 76.855 18.1504
9275.000415 77.654 15.4282
9342.210891 78.089 9.5405
9409.908403 78.124 5.0225
9478.096478 78.180 3.1309
9546.778672 78.491 -1.3774
9615.958566 78.499 -12.3579
9685.639765 77.806 -20.1665
9755.825904 77.058 -22.5322
9826.520640 76.526 -28.4331
9897.727659 75.440 -38.0186
9969.450674 73.648 -34.4912
10041.693423 72.384 -17.4844
10114.459673 72.091 -7.7295
10187.753217 72.012 -7.2017
10261.577877 72.328 6.4995
10335.937500 73.525 18.7847
10410.835964 74.439 10.3003
10486.277173 74.356 2.9116
10562.265060 74.226 5.3862
10638.803587 74.431 4.5415
10715.896743 74.272 -1.5806
10793.548548 74.012 -1.6099
10871.763050 74.271 4.2153
10950.544327 74.612 -0.1763
11029.896485 74.483 -4.1221
11109.823662 74.718 5.8833
11190.330024 75.375 4.1611
11271.419768 75.317 -6.6211
11353.097122 74.736 -6.4512
11435.366344 74.519 -2.7720
11518.231722 74.424 -10.7432
11601.697577 73.837 -15.9556
11685.768261 73.323 -9.6494
11770.448155 73.288 -8.1279
11855.741674 73.142 -10.1064
11941.653265 73.164 -2.1875
12028.187408 73.768 1.5942
12115.348612 74.051 -4.9849
12203.141422 73.893 -5.0166
12291.570415 73.932 -5.4312
12380.640201 73.651 -12.5166
12470.355424 72.983 -14.1465
12560.720760 72.567 -10.3413
12651.740920 72.447 -9.1689
12743.420650 72.587 -1.6313
12835.764729 73.298 6.2012
12928.777972 73.997 5.1968
13022.465227 74.608 3.4463
13116.831378 75.101 -1.3877
13211.881345 75.274 -8.0718
13307.620084 75.172 -13.9390
13404.052584 75.068 -16.0278
13501.183875 75.050 -19.7915
13599.019019 74.858 -23.9517
13697.563116 74.664 -26.5776
13796.821305 74.433 -32.0552
13896.798760 74.015 -35.0073
13997.500692 73.754 -36.1338
14098.932352 73.332 -42.4517
14201.099028 72.414 -43.3086
14304.006046 71.791 -39.3643
14407.658770 71.570 -37.9077
14512.062604 71.639 -36.4062
14617.222992 71.764 -41.3389
14723.145416 71.500 -47.4751
14829.835397 71.153 -50.3438
14937.298497 70.663 -56.5063
15045.540320 69.744 -61.8521
15154.566507 68.705 -62.8037
15264.382743 67.632 -64.8159
15374.994752 66.470 -57.9004
15486.408302 65.729 -52.0151
15598.629201 65.445 -48.4863
15711.663298 65.631 -44.4453
15825.516487 65.679 -50.1670
15940.194703 65.067 -53.1030
16055.703925 64.101 -60.8936
16172.050174 62.902 -63.5801
16289.239516 62.146 -50.7290
16407.278061 61.529 -26.3887
16526.171961 61.342 -0.3281
16645.927415 62.373 12.6704
16766.550667 64.179 24.3452
16888.048005 65.206 19.3960
17010.425762 65.870 20.4614
17133.690320 66.585 14.1816
17257.848103 67.185 8.1001
17382.905584 67.297 -2.1680
17508.869284 66.573 -7.4717
17635.745768 66.111 -2.5278
17763.541652 66.325 1.8843
17892.263597 66.531 3.5522
18021.918315 66.513 2.0176
18152.512564 66.592 2.5029
18284.053153 66.650 1.1104
18416.546939 66.808 0.0400
18550.000830 67.001 -3.9116
18684.421783 67.037 -7.3188
18819.816805 66.953 -11.6104
18956.192956 66.814 -15.9624
19093.557344 66.524 -21.7568
19231.917131 65.919 -28.0073
19371.279531 65.081 -33.2314
19511.651807 64.080 -37.2373
19653.041280 62.880 -41.2744
19795.455318 61.629 -43.6528
19938.901348 60.871 -45.1157
