* Measurement data measured by REW V5.31.1
* Source: Scarlett 2i4 USB, MICROPHONE, R, volume: no control
* Format: 512k Log Swept Sine, 1 sweep at -18.0 dBFS with no timing reference
* Dated: May 7, 2024 1:52:47 PM
* REW Settings:
*  C-weighting compensation: Off
*  Target level: 75.0 dB
* Note: ; 
* Measurement: front-empty-p2-r
* Smoothing: 1/48 octave
* Frequency Step: 96 ppo
* Start Frequency: 10.093689 Hz
*
* Freq(Hz) SPL(dB) Phase(degrees)
10.093689 32.290 128.6804
10.166832 31.389 122.7837
10.240505 30.267 116.3424
10.314712 29.092 109.0654
10.389457 27.873 100.9308
10.464743 26.453 92.4686
10.540575 24.625 83.1660
10.616956 22.579 71.3250
10.693891 20.609 54.8764
10.771383 19.017 33.9580
10.849437 17.885 9.2116
10.928057 17.142 -26.4244
11.007246 16.801 -66.0970
11.087009 16.918 -94.4005
11.167350 17.566 -121.3228
11.248273 18.726 -157.0946
11.329783 20.249 173.1216
11.411883 22.000 150.9067
11.494578 23.958 131.6534
11.577873 26.167 116.6100
11.661771 28.432 105.3907
11.746277 30.536 95.9702
11.831395 32.371 87.0546
11.917130 34.013 79.0281
12.003487 35.509 71.9789
12.090469 36.883 65.5079
12.178081 38.137 59.1329
12.266329 39.261 52.9151
12.355216 40.277 47.1037
12.444747 41.206 41.6616
12.534926 42.049 36.2206
12.625760 42.801 30.7690
12.717251 43.473 25.5884
12.809406 44.073 20.7506
12.902228 44.599 15.8130
12.995723 45.051 10.8944
13.089895 45.435 6.2732
13.184750 45.754 1.9485
13.280292 46.003 -2.4818
13.376526 46.186 -6.7689
13.473458 46.306 -10.6304
13.571093 46.361 -14.3276
13.669434 46.352 -17.9381
13.768489 46.284 -21.1957
13.868261 46.157 -23.9487
13.968756 45.969 -26.4325
14.069979 45.738 -28.5271
14.171936 45.476 -30.0179
14.274632 45.174 -30.8573
14.378072 44.864 -31.1004
14.482261 44.592 -30.7792
14.587206 44.362 -29.6790
14.692910 44.188 -27.9049
14.799381 44.114 -25.8755
14.906624 44.168 -23.6784
15.014643 44.332 -21.3301
15.123446 44.576 -19.3148
15.233036 44.891 -17.8371
15.343421 45.272 -16.7533
15.454606 45.668 -16.1578
15.566596 46.052 -16.0948
15.679398 46.427 -16.4612
15.793018 46.777 -17.1120
15.907460 47.089 -18.0101
16.022732 47.368 -19.1612
16.138840 47.616 -20.3975
16.255788 47.832 -21.6788
16.373585 48.019 -23.0461
16.492234 48.186 -24.3969
16.611744 48.335 -25.7186
16.732119 48.470 -27.0384
16.853367 48.596 -28.3290
16.975494 48.715 -29.5957
17.098505 48.827 -30.8452
17.222408 48.934 -32.0781
17.347209 49.035 -33.3064
17.472914 49.130 -34.4973
17.599530 49.217 -35.6438
17.727063 49.298 -36.7511
17.855521 49.374 -37.7475
17.984909 49.448 -38.6320
18.115235 49.525 -39.3998
18.246506 49.617 -40.0079
18.378727 49.723 -40.4581
18.511907 49.858 -40.8318
18.646052 50.028 -41.1047
18.781169 50.232 -41.3503
18.917265 50.471 -41.7126
19.054347 50.742 -42.1390
19.192423 51.031 -42.7474
19.331499 51.330 -43.5733
19.471583 51.628 -44.5500
19.612682 51.907 -45.6818
19.754804 52.164 -46.9490
19.897956 52.391 -48.1635
20.042144 52.585 -49.3802
20.187378 52.754 -50.4211
20.333664 52.900 -51.2023
20.481010 53.040 -51.7411
20.629424 53.193 -51.9265
20.778913 53.371 -51.8135
20.929486 53.596 -51.5373
21.081150 53.873 -51.0770
21.233912 54.201 -50.7251
21.387782 54.579 -50.4937
21.542767 54.981 -50.5029
21.698874 55.393 -50.8295
21.856113 55.797 -51.3683
22.014492 56.175 -52.1173
22.174018 56.526 -52.9655
22.334700 56.845 -53.7618
22.496546 57.140 -54.5047
22.659566 57.430 -55.0315
22.823766 57.725 -55.4025
22.989157 58.050 -55.6464
23.155745 58.409 -55.8123
23.323542 58.807 -56.1392
23.492554 59.237 -56.6125
23.662790 59.677 -57.4515
23.834261 60.110 -58.5728
24.006973 60.508 -59.9630
24.180938 60.862 -61.5248
24.356163 61.160 -63.0045
24.532658 61.411 -64.3389
24.710431 61.638 -65.1823
24.889493 61.878 -65.5853
25.069853 62.183 -65.3644
25.251519 62.596 -64.9188
25.434502 63.154 -64.3655
25.618811 63.840 -64.4429
25.804456 64.629 -65.2222
25.991445 65.447 -67.1857
26.179790 66.250 -70.1227
26.369500 66.974 -74.0588
26.560584 67.594 -78.7006
26.753053 68.079 -83.8956
26.946917 68.418 -89.2654
27.142185 68.601 -94.7778
27.338869 68.632 -99.8285
27.536977 68.518 -104.4584
27.736522 68.295 -107.9744
27.937512 68.019 -110.3723
28.139959 67.770 -111.1727
28.343872 67.674 -110.8406
28.549264 67.803 -109.5807
28.756143 68.186 -108.7402
28.964522 68.748 -108.8210
29.174411 69.385 -110.3563
29.385821 69.979 -113.2320
29.598763 70.468 -117.1662
29.813248 70.799 -121.8156
30.029287 70.960 -126.6312
30.246891 70.948 -131.4939
30.466073 70.777 -135.7667
30.686842 70.483 -139.3014
30.909212 70.106 -141.7862
31.133193 69.723 -143.0837
31.358797 69.394 -143.3727
31.586035 69.169 -142.8311
31.814921 69.059 -142.0636
32.045465 69.035 -141.2443
32.277680 69.065 -140.5090
32.511577 69.124 -139.6744
32.747169 69.235 -138.5512
32.984469 69.436 -137.1382
33.223488 69.779 -135.6088
33.464239 70.268 -134.6137
33.706735 70.858 -134.5316
33.950987 71.480 -135.6066
34.197010 72.046 -137.8108
34.444816 72.506 -140.7209
34.694417 72.839 -143.9952
34.945827 73.048 -147.2303
35.199059 73.174 -149.9801
35.454126 73.275 -152.1625
35.711041 73.407 -153.8402
35.969818 73.613 -155.2744
36.230470 73.892 -157.0132
36.493011 74.193 -159.3754
36.757455 74.456 -162.4224
37.023814 74.616 -166.0656
37.292104 74.627 -169.9894
37.562338 74.466 -173.6682
37.834530 74.140 -176.6317
38.108695 73.684 -178.3893
38.384846 73.168 -178.4312
38.662999 72.702 -176.4215
38.943167 72.433 -172.5578
39.225365 72.462 -167.6170
39.509608 72.805 -162.7048
39.795911 73.393 -158.7329
40.084289 74.116 -156.0536
40.374756 74.876 -154.5108
40.667328 75.625 -153.6390
40.962020 76.374 -152.8885
41.258848 77.186 -151.9093
41.557827 78.141 -150.7814
41.858972 79.284 -150.0853
42.162299 80.590 -150.6344
42.467824 81.968 -153.0251
42.775564 83.308 -157.4032
43.085533 84.518 -163.5430
43.397749 85.542 -171.0345
43.712227 86.351 -179.4127
44.028983 86.940 171.7678
44.348036 87.314 162.9008
44.669400 87.492 154.3302
44.993093 87.504 146.3479
45.319131 87.390 139.1750
45.647532 87.198 132.9357
45.978313 86.977 127.6320
46.311491 86.767 123.1473
46.647083 86.595 119.2926
46.985107 86.473 115.8748
47.325581 86.404 112.7439
47.668521 86.385 109.7949
48.013947 86.417 106.9449
48.361876 86.497 104.1215
48.712326 86.621 101.2708
49.065315 86.787 98.3644
49.420863 86.997 95.3781
49.778987 87.258 92.2521
50.139706 87.571 88.8774
50.503039 87.930 85.1329
50.869005 88.321 80.9474
51.237623 88.734 76.3256
51.608912 89.171 71.2926
51.982891 89.646 65.7838
52.359580 90.165 59.5681
52.739000 90.711 52.3001
53.121168 91.228 43.6853
53.506106 91.645 33.6336
53.893833 91.887 22.2693
54.284370 91.891 9.8925
54.677737 91.614 -3.0553
55.073955 91.029 -16.0386
55.473043 90.134 -28.4527
55.875024 88.953 -39.6649
56.279917 87.550 -49.1015
56.687745 86.033 -56.4240
57.098527 84.539 -61.8999
57.512287 83.165 -66.4112
57.929045 81.914 -70.8307
58.348822 80.722 -75.4636
58.771642 79.538 -80.1611
59.197525 78.359 -84.8237
59.626495 77.213 -89.8022
60.058573 76.085 -95.7535
60.493782 74.902 -103.2322
60.932145 73.565 -112.4380
61.373685 71.996 -123.5364
61.818424 70.163 -137.0383
62.266386 68.113 -154.3352
62.717593 66.051 -178.1064
63.172071 64.484 150.0024
63.629842 64.005 117.1423
64.090930 64.574 92.8226
64.555359 65.629 76.9019
65.023154 66.771 66.0740
65.494339 67.860 57.9897
65.968938 68.863 51.2773
66.446976 69.779 45.1508
66.928478 70.605 39.1093
67.413469 71.329 32.8757
67.901975 71.936 26.3868
68.394021 72.425 19.7058
68.889632 72.799 12.8759
69.388835 73.064 5.9155
69.891655 73.216 -1.1901
70.398118 73.246 -8.4019
70.908252 73.142 -15.7153
71.422083 72.872 -23.0605
71.939636 72.388 -30.1570
72.460941 71.657 -36.0051
72.986023 70.766 -38.8601
73.514909 70.065 -36.9962
74.047629 70.047 -32.1577
74.584208 70.771 -29.6852
75.124676 71.785 -31.9924
75.669061 72.744 -37.7012
76.217390 73.564 -45.1735
76.769692 74.263 -53.7314
77.325997 74.853 -63.2087
77.886333 75.335 -73.3789
78.450730 75.731 -83.9268
79.019216 76.088 -94.7346
79.591822 76.436 -106.0541
80.168577 76.747 -118.2084
80.749512 76.963 -131.2446
81.334656 77.037 -144.8953
81.924040 76.947 -158.8489
82.517696 76.672 -172.9336
83.115653 76.169 173.0586
83.717943 75.378 159.6685
84.324598 74.262 147.9182
84.935649 72.847 139.2184
85.551128 71.284 135.2535
86.171066 69.925 137.3112
86.795497 69.306 144.2656
87.424453 69.728 151.6777
88.057967 70.950 156.1018
88.696071 72.585 156.9082
89.338800 74.356 154.0247
89.986185 76.068 147.6564
90.638262 77.621 138.6395
91.295065 79.002 127.7067
91.956626 80.197 114.8408
92.622982 81.114 99.7161
93.294166 81.613 82.5942
93.970214 81.588 64.5974
94.651161 81.017 47.4047
95.337042 80.007 32.7539
96.027894 78.801 21.5929
96.723752 77.693 13.1633
97.424652 76.861 5.6337
98.130631 76.319 -2.1826
98.841726 76.036 -10.7471
99.557974 75.992 -20.5771
100.279412 76.147 -32.3495
101.006078 76.412 -46.5795
101.738010 76.670 -63.2017
102.475245 76.853 -81.4854
103.217823 76.974 -100.5808
103.965782 77.064 -120.0868
104.719161 77.090 -139.8645
105.477999 76.969 -159.4305
106.242336 76.658 -177.9648
107.012212 76.168 165.0123
107.787666 75.495 149.4095
108.568740 74.575 135.3396
109.355474 73.350 123.8151
110.147909 71.877 116.4065
110.946086 70.370 114.2019
111.750047 69.147 116.3208
112.559834 68.388 119.8552
113.375489 67.999 123.2020
114.197055 67.898 127.8395
115.024574 68.245 134.9376
115.858089 69.160 142.0967
116.697645 70.419 145.7528
117.543284 71.661 145.1902
118.395051 72.680 142.1637
119.252990 73.481 138.8879
120.117147 74.189 136.3534
120.987565 74.887 133.8967
121.864291 75.550 130.8724
122.747370 76.153 127.6890
123.636848 76.755 125.1044
124.532771 77.483 123.4735
125.435187 78.415 121.7109
126.344142 79.437 117.7900
127.259684 80.347 111.3870
128.181860 81.040 103.7081
129.110718 81.524 95.7419
130.046308 81.837 87.7493
130.988677 81.996 79.7886
131.937875 82.016 71.9702
132.893951 81.907 64.3966
133.856956 81.690 57.2772
134.826938 81.404 50.6521
135.803950 81.058 44.0228
136.788041 80.603 37.1575
137.779264 80.002 30.7211
138.777669 79.297 25.2238
139.783309 78.544 20.0961
140.796237 77.724 14.5408
141.816504 76.759 8.2180
142.844165 75.549 0.9171
143.879273 73.986 -8.0956
144.921881 71.957 -20.5419
145.972045 69.746 -41.4039
147.029819 69.393 -156.9944
148.095257 72.044 151.7366
149.168417 75.232 136.5317
150.249353 77.812 122.7732
151.338121 79.660 108.4124
152.434780 80.861 94.4006
153.539385 81.548 81.6965
154.651995 81.865 70.7974
155.772667 81.927 61.5725
156.901460 81.791 53.6514
158.038432 81.511 47.5906
159.183644 81.262 44.5000
160.337154 81.273 43.2881
161.499023 81.516 40.4861
162.669312 81.724 35.2649
163.848081 81.740 29.5945
165.035392 81.612 25.0300
166.231306 81.488 22.0310
167.435887 81.467 19.1392
168.649196 81.425 14.3760
169.871298 81.156 8.6243
171.102255 80.645 4.9319
172.342133 80.140 4.7942
173.590995 79.901 6.3032
174.848907 80.000 7.5972
176.115934 80.437 8.6814
177.392143 81.253 9.3574
178.677599 82.353 7.2368
179.972371 83.438 0.2708
181.276525 84.208 -11.0188
182.590129 84.499 -24.8469
183.913252 84.258 -39.5427
185.245964 83.498 -53.8120
186.588332 82.267 -66.8115
187.940428 80.613 -78.5486
189.302322 78.505 -89.5652
190.674085 75.870 -98.0144
192.055788 73.243 -86.4995
193.447503 72.855 -14.2886
194.849303 74.790 -9.7073
196.261262 76.774 -21.5918
197.683452 78.229 -36.6841
199.115948 79.200 -54.5764
200.558824 79.702 -76.2986
202.012156 79.682 -102.5864
203.476019 79.024 -133.9443
204.950490 77.606 -169.0908
206.435646 75.607 157.2976
207.931564 74.224 133.1685
209.438322 74.837 113.6602
210.955998 76.190 88.8794
212.484672 76.867 62.8184
214.024424 76.796 43.3103
215.575333 76.716 33.9316
217.137481 77.076 25.7759
218.710948 77.358 12.8188
220.295818 77.114 -0.0413
221.892172 76.544 -7.8796
223.500094 76.090 -12.7383
225.119668 75.796 -20.0862
226.750978 75.203 -32.3606
228.394109 73.891 -43.5215
230.049147 72.390 -29.9016
231.716178 72.227 -3.1953
233.395289 73.041 -7.1985
235.086567 73.555 -18.8188
236.790102 73.364 -32.7344
238.505980 72.615 -41.3296
240.234293 72.645 -16.1277
241.975130 74.057 -6.8413
243.728581 75.139 -28.8784
245.494739 74.991 -59.9565
247.273695 73.850 -97.8806
249.065542 73.010 -158.6716
250.870374 74.026 133.8208
252.688284 76.317 98.3179
254.519367 78.753 76.2344
256.363720 80.820 56.5681
258.221437 82.246 35.5676
260.092616 82.962 14.4121
261.977354 83.058 -5.0547
263.875750 82.693 -22.0835
265.787903 81.943 -37.8665
267.713911 80.732 -51.5190
269.653877 79.229 -57.6743
271.607900 78.030 -59.5635
273.576083 77.436 -63.8376
275.558528 77.246 -71.9092
277.555338 76.936 -87.5815
279.566619 76.026 -108.9087
281.592474 74.768 -133.6765
283.633009 74.207 -174.5032
285.688331 74.546 114.9910
287.758546 74.736 53.8789
289.843763 73.999 14.3560
291.944090 72.222 -7.0227
294.059638 70.335 -2.0439
296.190515 70.766 31.0703
298.336833 73.481 48.4421
300.498705 76.310 45.9795
302.676243 78.610 36.3147
304.869559 80.606 27.4702
307.078770 82.557 20.1975
309.303989 84.261 8.3733
311.545334 85.466 -6.9648
313.802919 86.215 -22.0466
316.076865 86.643 -36.1562
318.367288 86.821 -49.4548
320.674309 86.829 -61.3293
322.998047 86.794 -71.7380
325.338624 86.822 -81.3438
327.696162 87.004 -90.1953
330.070783 87.333 -100.3105
332.462612 87.537 -113.9956
334.871773 87.318 -129.5178
337.298392 86.626 -143.5647
339.742595 85.639 -154.1689
342.204510 84.661 -161.2007
344.684265 83.956 -166.7432
347.181989 83.610 -172.3523
349.697813 83.581 -179.0076
352.231868 83.790 173.1594
354.784285 84.010 161.4446
357.355198 83.793 145.2322
359.944741 82.868 129.1738
362.553049 81.301 118.1516
365.180258 79.635 118.9739
367.826505 78.976 126.8135
370.491927 79.509 126.5054
373.176665 80.348 118.6697
375.880856 81.031 108.1582
378.604644 81.403 94.7834
381.348169 81.167 77.9319
384.111575 80.072 62.0630
386.895006 78.285 55.6362
389.698607 76.868 65.8469
392.522524 77.360 81.1235
395.366904 79.235 85.4900
398.231895 80.958 75.3120
401.117648 82.021 60.3975
404.024312 82.586 46.3101
406.952038 82.922 33.5884
409.900981 83.265 22.2976
412.871292 83.709 10.3464
415.863128 83.940 -6.2644
418.876643 83.597 -24.6616
421.911996 82.680 -40.8906
424.969344 81.478 -52.1638
428.048847 80.476 -60.0242
431.150666 79.746 -71.5708
434.274961 78.906 -84.5867
437.421897 78.070 -94.0522
440.591636 77.657 -104.3860
443.784345 77.483 -122.1570
447.000189 76.923 -147.6833
450.239337 75.579 -178.9006
453.501956 73.532 149.1807
456.788219 72.057 -78.8010
460.098294 72.301 -105.9092
463.432356 73.228 -129.6777
466.790578 74.306 -145.7363
470.173135 75.261 -163.6418
473.580203 76.173 -178.0828
477.011961 77.420 170.0605
480.468586 78.802 155.2441
483.950259 80.179 140.7180
487.457163 81.581 126.3286
490.989478 82.667 107.0593
494.547390 83.320 87.4417
498.131084 83.663 67.9272
501.740748 83.538 46.8928
505.376568 82.856 28.4287
509.038735 82.004 14.7061
512.727439 81.241 -0.3555
516.442874 80.251 -17.9629
520.185232 78.794 -33.1387
523.954708 77.137 -45.2500
527.751500 75.743 -56.3047
531.575805 75.535 -57.8076
535.427822 76.567 -78.4902
539.307753 77.420 -122.9307
543.215800 77.889 -174.7266
547.152165 78.486 139.5903
551.117055 79.452 103.7793
555.110677 80.367 71.3057
559.133237 80.734 39.7603
563.184947 80.487 8.6562
567.266018 79.549 -25.8101
571.376661 77.867 -65.9199
575.517092 76.301 123.0679
579.687526 75.812 58.6914
583.888181 75.681 30.9438
588.119275 76.060 23.0908
592.381030 76.949 9.3555
596.673667 77.141 -14.6606
600.997410 76.565 -33.8994
605.352485 75.917 -54.3110
609.739119 74.994 -86.9609
614.157540 73.770 -132.5718
618.607979 73.621 163.9902
623.090667 75.631 113.5625
627.605839 78.423 80.8823
632.153730 80.353 46.3965
636.734576 80.913 10.0791
641.348617 80.356 -23.3477
645.996094 78.862 -53.0283
650.677248 77.047 -68.7563
655.392323 77.156 -48.8872
660.141566 79.045 -59.6470
664.925224 80.315 -99.9487
669.743546 80.315 -147.0869
674.596784 79.171 165.5439
679.485191 77.175 119.9023
684.409020 74.668 74.7407
689.368530 73.066 -5.2495
694.363979 74.516 -143.9771
699.395626 76.791 174.7622
704.463736 77.822 139.2642
709.568570 77.981 118.1562
714.710396 78.877 112.8384
719.889483 80.141 97.1172
725.106099 80.422 76.6855
730.360516 80.124 71.2627
735.653010 79.970 61.5674
740.983855 79.966 60.6787
746.353329 80.918 70.6772
751.761713 82.064 56.6138
757.209288 82.279 37.7935
762.696339 81.874 27.5850
768.223151 81.283 15.5190
773.790013 80.405 5.6172
779.397214 80.146 6.8823
785.045047 81.024 5.3345
790.733808 81.415 -16.4761
796.463791 80.087 -42.3794
802.235296 77.294 -37.9077
808.048623 74.540 -0.4072
813.904077 73.231 4.1929
819.801961 73.089 18.0024
825.742584 74.141 49.4834
831.726255 76.153 54.8022
837.753287 78.407 54.1289
843.823992 80.613 50.0684
849.938689 82.383 37.0083
856.097695 83.530 20.7651
862.301332 83.791 2.0444
868.549922 83.217 -10.8501
874.843793 82.715 -14.1606
881.183272 82.772 -20.5977
887.568689 82.641 -34.6768
894.000378 81.790 -48.2373
900.478673 80.837 -47.7476
907.003913 80.904 -44.5366
913.576437 81.321 -64.7866
920.196588 81.294 -98.1548
926.864712 81.449 58.3862
933.581156 82.578 20.8008
940.346270 83.859 -7.3330
947.160407 84.507 -31.6572
954.023921 84.369 -53.8252
960.937172 83.500 -71.5464
967.900519 82.273 -86.2500
974.914325 80.620 -101.0552
981.978956 78.482 -103.1357
989.094780 76.546 -96.7632
996.262169 75.484 -100.1504
1003.481495 76.357 -97.2593
1010.753136 78.759 -51.4312
1018.077470 80.371 -61.5571
1025.454879 80.253 -80.5347
1032.885748 79.551 -79.6147
1040.370463 79.438 -97.8120
1047.909417 79.155 -129.0869
1055.503000 77.740 -163.4443
1063.151610 76.059 158.6440
1070.855645 75.707 96.7217
1078.615506 76.080 29.7212
1086.431599 75.894 -19.6724
1094.304330 75.376 -57.5146
1102.234110 75.334 -96.7329
1110.221353 75.531 75.6655
1118.266475 75.324 17.5835
1126.369895 75.045 2.9976
1134.532035 75.188 -8.2363
1142.753322 76.393 -3.2158
1151.034184 79.287 7.0645
1159.375052 82.218 -7.0952
1167.776361 84.321 -30.4434
1176.238550 85.289 -58.6138
1184.762060 84.899 -85.8911
1193.347334 83.655 -103.7935
1201.994821 82.212 -119.5083
1210.704971 80.697 -134.0503
1219.478238 79.394 -149.9731
1228.315080 77.660 -166.0942
1237.215957 74.952 -165.9312
1246.181334 72.028 -171.2090
1255.211678 70.837 -107.9844
1264.307459 72.769 -68.5981
1273.469152 75.203 -86.0322
1282.697235 76.717 -112.6099
1291.992188 77.394 -139.9424
1301.354495 77.049 -168.2944
1310.784647 75.919 179.7563
1320.283132 75.803 171.3242
1329.850448 77.181 146.5283
1339.487093 78.892 113.1030
1349.193569 79.769 72.6074
1358.970381 79.712 36.7642
1368.818041 80.289 24.2656
1378.737061 82.272 11.5527
1388.727958 83.744 -22.4033
1398.791253 83.740 -60.3926
1408.927471 82.335 -91.7129
1419.137140 80.227 -116.8833
1429.420793 77.823 -123.8359
1439.778965 76.222 -117.3940
1450.212197 76.076 -124.4639
1460.721033 76.826 -82.5557
1471.306019 78.064 -63.8076
1481.967709 79.142 -89.7812
1492.706658 79.702 -122.7539
1503.523426 79.526 -156.6353
1514.418576 79.231 164.6382
1525.392678 78.852 98.9863
1536.446302 78.401 -62.5156
1547.580025 78.653 -116.7646
1558.794428 79.158 -159.3301
1570.090095 79.217 160.9102
1581.467615 78.675 122.7671
1592.927581 77.493 94.5898
1604.470591 77.152 78.6016
1616.097246 78.336 58.0806
1627.808153 79.776 31.3369
1639.603922 80.627 3.2432
1651.485168 81.127 -22.6533
1663.452510 81.202 -48.0684
1675.506573 81.021 -65.5894
1687.647984 81.514 -75.9336
1699.877377 82.474 -97.6128
1712.195390 82.749 -127.8760
1724.602663 82.320 -158.8433
1737.099845 81.323 163.8213
1749.687587 79.361 120.2720
1762.366544 77.805 38.2876
1775.137379 77.689 -43.1421
1788.000756 77.693 -85.8145
1800.957346 77.706 -115.0620
1814.007826 78.276 -142.3071
1827.152874 78.773 -176.1509
1840.393177 78.403 -140.1089
1853.729425 77.292 -120.6157
1867.162312 76.002 -123.1396
1880.692540 75.123 -121.0190
1894.320813 75.100 -124.1270
1908.047843 75.901 -130.2197
1921.874344 76.840 -143.2534
1935.801038 78.315 -127.3594
1949.828650 80.068 -137.2236
1963.957912 81.083 -169.4907
1978.189561 80.847 151.9785
1992.524338 79.834 125.5215
2006.962991 79.682 -115.0654
2021.506272 79.951 -145.0679
2036.154940 80.499 -157.1284
2050.909758 81.491 -173.0327
2065.771495 81.575 157.3037
2080.740927 80.626 133.6421
2095.818833 80.174 -172.5342
2111.006001 81.268 -171.9453
2126.303220 82.521 162.2090
2141.711290 82.643 131.4966
2157.231013 81.261 109.4844
2172.863198 79.650 101.2197
2188.608660 79.726 -176.2632
2204.468221 81.346 177.9653
2220.442706 82.849 151.6592
2236.532950 83.505 125.4028
2252.739789 83.576 108.8579
2269.064070 83.358 89.2725
2285.506644 81.922 74.5947
2302.068367 79.915 85.8770
2318.750104 79.250 96.6836
2335.552723 80.230 92.5698
2352.477101 81.085 65.7627
2369.524119 80.751 28.5835
2386.694668 79.101 -15.1455
2403.989641 77.650 -129.3613
2421.409941 78.167 164.2715
2438.956476 79.853 134.2500
2456.630160 80.665 99.7656
2474.431915 80.260 74.1592
2492.362668 79.783 60.7090
2510.423356 79.466 40.2451
2528.614918 78.736 21.0420
2546.938304 77.447 14.4033
2565.394469 76.051 2.1953
2583.984375 75.039 102.4336
2602.708991 74.380 72.7852
2621.569293 73.777 48.7637
2640.566265 73.438 30.8779
2659.700897 73.944 -5.9209
2678.974186 74.794 -136.0244
2698.387137 74.746 145.4014
2717.940763 73.966 103.9307
2737.636082 74.035 85.1387
2757.474121 75.590 178.8271
2777.455915 77.267 152.1416
2797.582506 77.807 120.7998
2817.854942 77.757 96.5967
2838.274281 77.442 74.8809
2858.841586 77.170 61.1943
2879.557931 77.313 79.6816
2900.424394 77.774 130.2041
2921.442065 77.924 117.8047
2942.612039 77.208 100.8271
2963.935418 76.352 92.6006
2985.413316 75.670 81.4365
3007.046852 75.082 83.9541
3028.837153 75.137 95.2480
3050.785356 75.668 88.8994
3072.892604 75.938 74.9883
3095.160050 75.795 60.2969
3117.588856 75.583 49.5713
3140.180190 75.450 67.4248
3162.935230 75.452 88.0371
3185.855163 75.929 81.6768
3208.941182 76.643 67.2129
3232.194493 76.835 52.7637
3255.616307 76.679 42.7549
3279.207844 75.956 24.6992
3302.970336 74.631 32.5986
3326.905021 74.339 80.9141
3351.013146 74.750 71.4131
3375.295969 74.581 57.7646
3399.754755 74.152 46.9033
3424.390779 73.718 39.1514
3449.205326 72.893 34.4453
3474.199690 72.671 58.8574
3499.375173 74.058 62.8906
3524.733088 75.680 45.3184
3550.274757 76.182 10.1182
3576.001511 75.871 -43.0596
3601.914692 76.446 144.1846
3628.015651 77.239 92.4971
3654.305748 77.116 54.0127
3680.786354 76.923 16.3047
3707.458849 77.014 147.3232
3734.324624 76.897 108.7012
3761.385080 76.227 72.4258
3788.641627 74.913 44.5166
3816.095686 73.707 34.2510
3843.748688 73.352 48.7607
3871.602076 73.392 51.3516
3899.657300 73.879 116.1396
3927.915825 74.686 115.0439
3956.379122 75.605 101.0146
3985.048676 76.062 82.4609
4013.925981 75.682 67.4951
4043.012544 74.727 62.6904
4072.309879 74.179 62.9736
4101.819515 74.095 58.3223
4131.542990 74.061 54.3838
4161.481854 73.826 59.8057
4191.637667 73.622 69.4668
4222.012001 74.031 72.9160
4252.606441 74.638 64.7969
4283.422580 75.064 56.4316
4314.462026 75.758 54.5547
4345.726396 76.897 50.3828
4377.217321 77.399 30.1484
4408.936442 76.396 9.4795
4440.885413 74.319 12.1543
4473.065899 72.709 21.2109
4505.479579 72.249 25.6982
4538.128141 72.304 23.9072
4571.013288 72.086 16.1846
4604.136735 71.786 16.1943
4637.500207 71.662 11.1807
4671.105446 71.690 1.3203
4704.954201 72.134 6.0801
4739.048239 73.115 62.0518
4773.389336 73.723 38.4219
4807.979283 73.605 -1.5908
4842.819883 73.365 -179.5869
4877.912952 73.720 125.4971
4913.260320 74.508 98.0859
4948.863830 74.875 70.4805
4984.725337 74.461 56.5215
5020.846712 73.856 73.3848
5057.229836 73.540 75.1406
5093.876609 72.999 63.5781
5130.788938 72.841 68.0137
5167.968750 73.072 60.8486
5205.417982 73.101 56.6143
5243.138586 73.803 73.0332
5281.132530 74.622 67.2715
5319.401793 74.857 52.1611
5357.948371 74.808 38.0479
5396.774274 74.569 32.6182
5435.881525 74.483 44.2363
5475.272163 74.815 41.0967
5514.948243 74.785 22.6279
5554.911831 74.232 30.0830
5595.165012 74.056 33.1367
5635.709884 73.333 20.7842
5676.548561 72.365 31.3682
5717.683172 72.225 24.2500
5759.115861 72.371 49.1191
5800.848789 72.473 63.9600
5842.884130 71.826 51.8867
5885.224077 70.960 61.6660
5927.870837 70.633 62.1523
5970.826633 71.006 82.5977
6014.093704 71.850 86.7695
6057.674306 72.391 77.4082
6101.570711 72.859 87.2246
6145.785208 73.875 95.5459
6190.320101 74.708 81.9785
6235.177712 75.307 72.6875
6280.360380 76.055 61.5352
6325.870460 76.013 46.4570
6371.710325 75.469 57.6396
6417.882365 75.887 66.1035
6464.388986 76.153 49.7256
6511.232613 75.623 40.6133
6558.415689 75.365 38.4209
6605.940673 75.157 27.1162
6653.810042 74.369 21.9150
6702.026292 73.750 27.6562
6750.591937 73.690 27.1895
6799.509509 74.060 26.2178
6848.781558 74.060 11.2549
6898.410653 73.546 3.3496
6948.399380 73.880 48.5303
6998.750346 74.870 49.7451
7049.466176 75.322 48.7051
7100.549514 75.303 46.9639
7152.003023 74.777 40.0850
7203.829385 74.498 43.9717
7256.031302 74.426 39.5654
7308.611496 74.418 49.0137
7361.572708 74.791 45.5273
7414.917698 75.014 37.6396
7468.649249 75.245 33.3096
7522.770160 75.497 26.7559
7577.283253 75.535 17.5508
7632.191371 74.978 8.5566
7687.497376 74.782 18.9082
7743.204151 75.409 27.6533
7799.314600 75.764 15.1992
7855.831649 75.495 -0.4287
7912.758244 74.468 -2.8867
7970.097352 73.326 23.2939
8027.851962 72.857 26.6846
8086.025087 73.191 31.5547
8144.619758 73.837 33.3857
8203.639030 74.670 44.9834
8263.085980 75.616 46.9346
8322.963708 76.658 40.3135
8383.275334 77.339 25.4043
8444.024002 77.169 14.2832
8505.212881 76.922 10.9229
8566.845160 76.589 5.0146
8628.924051 76.240 4.3623
8691.452792 76.040 -2.9912
8754.434642 75.770 -10.6885
8817.872884 75.103 -21.8281
8881.770826 73.976 -21.5449
8946.131799 73.371 -0.7695
9010.959157 73.451 0.6611
9076.256282 73.256 -10.2988
9142.026576 72.637 -11.1562
9208.273470 73.071 17.1572
9275.000415 74.333 23.4980
9342.210891 74.916 11.0898
9409.908403 74.368 0.9541
9478.096478 73.874 2.4717
9546.778672 74.218 2.0127
9615.958566 74.553 -6.8633
9685.639765 74.182 -17.1436
9755.825904 73.298 -17.3662
9826.520640 72.802 -14.0166
9897.727659 72.617 -19.8291
9969.450674 72.249 -26.1299
10041.693423 71.551 -29.8525
10114.459673 71.079 -17.1807
10187.753217 71.113 8.8965
10261.577877 71.073 10.7090
10335.937500 71.248 8.6855
10410.835964 72.011 16.3008
10486.277173 73.256 18.3330
10562.265060 74.161 4.3135
10638.803587 74.206 -10.0957
10715.896743 73.882 -15.0723
10793.548548 73.651 -19.9023
10871.763050 72.983 -30.2793
10950.544327 71.692 -38.5342
11029.896485 70.785 -20.5430
11109.823662 71.117 -6.0957
11190.330024 71.516 -9.6572
11271.419768 71.823 -4.3994
11353.097122 72.381 3.2471
11435.366344 72.642 -1.5420
11518.231722 72.418 -11.6279
11601.697577 71.889 -19.3848
11685.768261 71.238 -23.6777
11770.448155 70.787 -28.0039
11855.741674 70.179 -38.7607
11941.653265 69.169 -42.5020
12028.187408 68.486 -31.3262
12115.348612 68.089 -27.0801
12203.141422 67.361 -22.3154
12291.570415 66.698 -4.2334
12380.640201 66.837 3.7031
12470.355424 67.232 5.9092
12560.720760 67.753 13.8789
12651.740920 68.440 14.3447
12743.420650 69.103 14.7031
12835.764729 70.009 13.6377
12928.777972 71.106 8.0488
13022.465227 71.708 -3.1992
13116.831378 71.664 -13.9971
13211.881345 71.591 -18.8740
13307.620084 71.913 -17.2021
13404.052584 72.161 -17.6230
13501.183875 72.010 -19.6777
13599.019019 71.661 -24.7041
13697.563116 71.075 -34.8330
13796.821305 70.119 -42.0381
13896.798760 69.108 -40.7646
13997.500692 68.311 -41.3945
14098.932352 67.723 -42.4062
14201.099028 67.567 -37.2344
14304.006046 67.505 -39.5068
14407.658770 67.275 -41.2412
14512.062604 67.129 -40.7676
14617.222992 66.815 -44.7783
14723.145416 66.290 -48.5283
14829.835397 66.017 -47.7373
14937.298497 65.960 -47.9668
15045.540320 65.431 -51.7520
15154.566507 64.866 -47.9619
15264.382743 64.779 -49.3369
15374.994752 64.630 -59.7168
15486.408302 64.118 -69.7832
15598.629201 63.313 -81.6904
15711.663298 61.859 -93.5010
15825.516487 60.190 -94.9424
15940.194703 59.163 -98.7842
16055.703925 58.562 -66.8164
16172.050174 58.648 -21.1387
16289.239516 59.471 -31.5762
16407.278061 60.423 -28.2529
16526.171961 60.398 -46.0195
16645.927415 59.635 -50.0566
16766.550667 59.015 49.0547
16888.048005 59.410 46.8613
17010.425762 60.639 40.1445
17133.690320 61.641 27.2676
17257.848103 62.194 13.4346
17382.905584 62.017 -3.3633
17508.869284 61.304 -10.4521
17635.745768 60.779 -2.2715
17763.541652 60.866 13.8408
17892.263597 61.647 25.4863
18021.918315 62.490 21.5811
18152.512564 63.124 14.6729
18284.053153 63.300 2.3359
18416.546939 62.910 -8.2051
18550.000830 62.395 -14.8076
18684.421783 61.830 -21.0264
18819.816805 61.210 -26.3730
18956.192956 60.404 -32.1367
19093.557344 59.311 -33.2705
19231.917131 58.535 -31.0127
19371.279531 58.081 -36.1445
19511.651807 57.323 -45.8311
19653.041280 55.951 -58.9287
19795.455318 53.869 -66.9062
19938.901348 51.957 -50.1621
