* Measurement data measured by REW V5.31.1
* Source: Scarlett 2i4 USB, MICROPHONE, R, volume: no control
* Format: 512k Log Swept Sine, 1 sweep at -18.0 dBFS with no timing reference
* Dated: May 7, 2024 4:20:02 PM
* REW Settings:
*  C-weighting compensation: Off
*  Target level: 75.0 dB
* Note: ; 
* Measurement: front-l12-r12-p3-l
* Smoothing: 1/48 octave
* Frequency Step: 96 ppo
* Start Frequency: 10.093689 Hz
*
* Freq(Hz) SPL(dB) Phase(degrees)
10.093689 42.362 -6.0280
10.166832 42.669 -7.3900
10.240505 43.040 -8.8854
10.314712 43.420 -10.4665
10.389457 43.797 -12.1022
10.464743 44.143 -13.7899
10.540575 44.440 -15.6026
10.616956 44.703 -17.4960
10.693891 44.935 -19.4157
10.771383 45.135 -21.3201
10.849437 45.304 -23.2896
10.928057 45.439 -25.3523
11.007246 45.540 -27.4393
11.087009 45.607 -29.4887
11.167350 45.638 -31.5300
11.248273 45.634 -33.6720
11.329783 45.590 -35.8379
11.411883 45.501 -37.9421
11.494578 45.367 -39.9711
11.577873 45.190 -42.0824
11.661771 44.959 -44.1924
11.746277 44.664 -46.1771
11.831395 44.301 -47.9761
11.917130 43.875 -49.7627
12.003487 43.367 -51.4189
12.090469 42.750 -52.7349
12.178081 41.998 -53.5452
12.266329 41.114 -53.8912
12.355216 40.128 -53.4502
12.444747 39.058 -51.6642
12.534926 37.800 -47.7238
12.625760 36.410 -40.5518
12.717251 35.297 -28.9769
12.809406 34.967 -13.4496
12.902228 35.580 3.4700
12.995723 36.780 17.1536
13.089895 38.142 25.6970
13.184750 39.464 30.1307
13.280292 40.839 32.1921
13.376526 42.170 32.6604
13.473458 43.330 31.9990
13.571093 44.295 30.4453
13.669434 45.117 28.3494
13.768489 45.832 25.9756
13.868261 46.457 23.3364
13.968756 46.981 20.3373
14.069979 47.422 17.2411
14.171936 47.795 14.1964
14.274632 48.095 10.9464
14.378072 48.328 7.6240
14.482261 48.506 4.4479
14.587206 48.628 1.2667
14.692910 48.696 -1.9574
14.799381 48.721 -5.0379
14.906624 48.706 -7.9728
15.014643 48.650 -10.8807
15.123446 48.564 -13.6573
15.233036 48.452 -16.2443
15.343421 48.314 -18.7258
15.454606 48.158 -21.0817
15.566596 47.989 -23.2777
15.679398 47.806 -25.3348
15.793018 47.613 -27.2682
15.907460 47.411 -29.0789
16.022732 47.199 -30.7541
16.138840 46.975 -32.2687
16.255788 46.738 -33.6224
16.373585 46.487 -34.7875
16.492234 46.224 -35.6471
16.611744 45.944 -36.1629
16.732119 45.663 -36.2825
16.853367 45.402 -35.8560
16.975494 45.163 -34.7873
17.098505 44.988 -33.1230
17.222408 44.931 -30.9366
17.347209 45.000 -28.1893
17.472914 45.212 -25.3940
17.599530 45.591 -22.8613
17.727063 46.115 -20.6426
17.855521 46.719 -19.2813
17.984909 47.390 -18.6752
18.115235 48.088 -18.7729
18.246506 48.760 -19.6511
18.378727 49.405 -21.1132
18.511907 49.999 -22.9724
18.646052 50.531 -25.2529
18.781169 51.000 -27.7708
18.917265 51.400 -30.3292
19.054347 51.732 -33.0512
19.192423 52.000 -35.6152
19.331499 52.202 -38.0713
19.471583 52.348 -40.3375
19.612682 52.445 -42.1852
19.754804 52.501 -43.7230
19.897956 52.539 -44.7429
20.042144 52.567 -45.2269
20.187378 52.619 -45.2181
20.333664 52.718 -44.6491
20.481010 52.883 -43.6855
20.629424 53.142 -42.5484
20.778913 53.493 -41.2864
20.929486 53.927 -40.3568
21.081150 54.436 -39.6975
21.233912 54.982 -39.5974
21.387782 55.545 -40.0231
21.542767 56.096 -40.9225
21.698874 56.612 -42.3175
21.856113 57.082 -44.0014
22.014492 57.490 -45.9193
22.174018 57.838 -47.9443
22.334700 58.124 -49.8694
22.496546 58.356 -51.7009
22.659566 58.550 -53.1663
22.823766 58.720 -54.3343
22.989157 58.901 -55.0662
23.155745 59.107 -55.4331
23.323542 59.372 -55.5986
23.492554 59.700 -55.6165
23.662790 60.091 -55.8639
23.834261 60.530 -56.3207
24.006973 60.983 -57.2574
24.180938 61.429 -58.5565
24.356163 61.831 -60.2048
24.532658 62.178 -62.0530
24.710431 62.453 -63.8631
24.889493 62.666 -65.4962
25.069853 62.830 -66.6365
25.251519 62.985 -67.2210
25.434502 63.173 -67.0321
25.618811 63.457 -66.3504
25.804456 63.877 -65.2182
25.991445 64.442 -64.3873
26.179790 65.140 -63.9629
26.369500 65.906 -64.5536
26.560584 66.696 -65.9887
26.753053 67.450 -68.3922
26.946917 68.141 -71.4399
27.142185 68.745 -75.0760
27.338869 69.260 -78.9447
27.536977 69.685 -83.0268
27.736522 70.037 -87.0313
27.937512 70.328 -90.9808
28.139959 70.580 -94.7638
28.343872 70.810 -98.4567
28.549264 71.029 -102.0913
28.756143 71.241 -105.8254
28.964522 71.436 -109.7150
29.174411 71.600 -113.8877
29.385821 71.706 -118.2879
29.598763 71.733 -122.9138
29.813248 71.657 -127.6212
30.029287 71.464 -132.1398
30.246891 71.148 -136.3670
30.466073 70.718 -139.8070
30.686842 70.211 -142.2724
30.909212 69.677 -143.3975
31.133193 69.218 -143.1446
31.358797 68.919 -141.8551
31.586035 68.840 -140.0166
31.814921 68.963 -138.6763
32.045465 69.206 -138.1782
32.277680 69.485 -138.6846
32.511577 69.713 -139.9546
32.747169 69.860 -141.5196
32.984469 69.925 -143.0837
33.223488 69.932 -144.2310
33.464239 69.938 -144.8096
33.706735 69.976 -144.8910
33.950987 70.096 -144.6370
34.197010 70.304 -144.4848
34.444816 70.571 -144.7222
34.694417 70.857 -145.4857
34.945827 71.117 -146.8233
35.199059 71.307 -148.5793
35.454126 71.403 -150.5272
35.711041 71.388 -152.4372
35.969818 71.254 -154.0150
36.230470 71.012 -154.8217
36.493011 70.700 -154.4488
36.757455 70.392 -152.5511
37.023814 70.196 -148.9868
37.292104 70.234 -144.1998
37.562338 70.551 -139.3099
37.834530 71.078 -135.2542
38.108695 71.705 -132.3453
38.384846 72.339 -130.3355
38.662999 72.947 -128.6434
38.943167 73.572 -126.7268
39.225365 74.282 -124.5527
39.509608 75.117 -122.5229
39.795911 76.060 -121.1492
40.084289 77.048 -120.7199
40.374756 78.017 -121.1260
40.667328 78.946 -121.8906
40.962020 79.882 -122.4807
41.258848 80.912 -122.7422
41.557827 82.110 -123.0924
41.858972 83.479 -124.3459
42.162299 84.945 -127.2357
42.467824 86.397 -132.0579
42.775564 87.736 -138.6789
43.085533 88.898 -146.7281
43.397749 89.849 -155.7605
43.712227 90.582 -165.3353
44.028983 91.102 -175.0617
44.348036 91.426 175.3855
44.669400 91.579 166.2701
44.993093 91.594 157.7910
45.319131 91.508 150.0700
45.647532 91.358 143.1461
45.978313 91.176 136.9851
46.311491 90.985 131.5098
46.647083 90.802 126.6383
46.985107 90.640 122.3045
47.325581 90.513 118.4463
47.668521 90.436 114.9787
48.013947 90.418 111.7832
48.361876 90.463 108.7313
48.712326 90.569 105.7206
49.065315 90.734 102.6832
49.420863 90.959 99.5536
49.778987 91.245 96.2338
50.139706 91.589 92.5984
50.503039 91.979 88.5449
50.869005 92.401 84.0310
51.237623 92.852 79.0508
51.608912 93.336 73.5521
51.982891 93.857 67.3596
52.359580 94.398 60.1914
52.739000 94.915 51.7803
53.121168 95.344 42.0125
53.506106 95.615 30.9868
53.893833 95.666 18.9517
54.284370 95.451 6.2789
54.677737 94.940 -6.5513
55.073955 94.119 -18.9844
55.473043 93.000 -30.4144
55.875024 91.620 -40.2482
56.279917 90.055 -48.0106
56.687745 88.410 -53.5822
57.098527 86.784 -57.4069
57.512287 85.215 -60.1755
57.929045 83.663 -62.1470
58.348822 82.084 -62.8822
58.771642 80.493 -61.6145
59.197525 78.997 -57.9471
59.626495 77.741 -52.2272
60.058573 76.841 -45.1829
60.493782 76.383 -37.6864
60.932145 76.376 -31.1316
61.373685 76.684 -26.9446
61.818424 77.084 -25.3981
62.266386 77.418 -25.5819
62.717593 77.653 -26.4330
63.172071 77.837 -27.3829
63.629842 78.017 -28.4971
64.090930 78.191 -30.0203
64.555359 78.330 -31.9060
65.023154 78.430 -33.8010
65.494339 78.523 -35.4297
65.968938 78.655 -36.8470
66.446976 78.843 -38.3320
66.928478 79.078 -40.0800
67.413469 79.349 -42.0912
67.901975 79.662 -44.3651
68.394021 80.018 -47.0643
68.889632 80.400 -50.3724
69.388835 80.781 -54.3145
69.891655 81.148 -58.7473
70.398118 81.513 -63.5717
70.908252 81.885 -68.8933
71.422083 82.251 -74.9567
71.939636 82.568 -81.8737
72.460941 82.788 -89.4764
72.986023 82.889 -97.3961
73.514909 82.885 -105.1752
74.047629 82.825 -112.5490
74.584208 82.770 -119.5504
75.124676 82.757 -126.5718
75.669061 82.772 -134.0677
76.217390 82.760 -142.2815
76.769692 82.662 -151.0905
77.325997 82.442 -160.1904
77.886333 82.096 -169.2289
78.450730 81.634 -177.9866
79.019216 81.067 173.7167
79.591822 80.414 166.1163
80.168577 79.706 159.4747
80.749512 79.001 153.9386
81.334656 78.360 149.3506
81.924040 77.818 145.3573
82.517696 77.380 141.7236
83.115653 77.047 138.3765
83.717943 76.830 135.1851
84.324598 76.732 131.8031
84.935649 76.722 127.8312
85.551128 76.744 123.0034
86.171066 76.722 117.2590
86.795497 76.578 110.8073
87.424453 76.251 104.2573
88.057967 75.738 98.6635
88.696071 75.148 95.2460
89.338800 74.720 94.4639
89.986185 74.688 94.9350
90.638262 75.080 94.3233
91.295065 75.738 91.2766
91.956626 76.461 85.2283
92.622982 77.040 75.7687
93.294166 77.242 63.1337
93.970214 76.864 48.5490
94.651161 75.775 34.0950
95.337042 73.944 22.7845
96.027894 71.523 18.7599
96.723752 69.006 24.9138
97.424652 67.195 36.8859
98.130631 66.618 48.5594
98.841726 67.074 56.3959
99.557974 67.849 57.4346
100.279412 68.395 54.7727
101.006078 68.797 53.9597
101.738010 69.502 55.7842
102.475245 70.549 54.8036
103.217823 71.540 48.9485
103.965782 72.241 40.3246
104.719161 72.631 30.4908
105.477999 72.736 20.0840
106.242336 72.602 9.7703
107.012212 72.323 0.0024
107.787666 71.993 -9.2760
108.568740 71.693 -17.9830
109.355474 71.543 -26.0850
110.147909 71.631 -34.5974
110.946086 71.897 -44.6248
111.750047 72.241 -55.8892
112.559834 72.665 -67.6227
113.375489 73.199 -79.7926
114.197055 73.795 -92.6642
115.024574 74.370 -105.8066
115.858089 74.910 -118.3199
116.697645 75.454 -129.8191
117.543284 76.009 -140.6438
118.395051 76.517 -151.1587
119.252990 76.913 -161.2012
120.117147 77.191 -170.0193
120.987565 77.462 -176.6709
121.864291 77.897 178.6150
122.747370 78.555 174.2993
123.636848 79.369 169.4448
124.532771 80.252 163.6299
125.435187 81.090 156.4579
126.344142 81.814 148.5837
127.259684 82.458 140.8586
128.181860 83.074 133.1775
129.110718 83.660 125.1549
130.046308 84.191 116.7351
130.988677 84.647 107.9888
131.937875 85.012 98.8983
132.893951 85.270 89.4952
133.856956 85.427 79.9901
134.826938 85.502 70.2015
135.803950 85.465 59.6191
136.788041 85.250 48.1978
137.779264 84.811 36.3950
138.777669 84.154 24.6013
139.783309 83.303 12.4607
140.796237 82.209 -1.0522
141.816504 80.714 -16.5580
142.844165 78.620 -33.9060
143.879273 75.836 -53.9731
144.921881 72.810 -91.2722
145.972045 71.483 144.5605
147.029819 72.751 113.0652
148.095257 74.612 98.7385
149.168417 76.176 88.7750
150.249353 77.388 80.2321
151.338121 78.314 72.1564
152.434780 79.044 64.4436
153.539385 79.650 56.5165
154.651995 80.114 47.4889
155.772667 80.361 37.0836
156.901460 80.316 25.5955
158.038432 79.927 13.3059
159.183644 79.146 0.2750
160.337154 77.912 -13.8722
161.499023 76.142 -30.2745
162.669312 73.798 -51.4911
163.848081 71.416 -98.5233
165.035392 70.828 128.6931
166.231306 72.309 104.1115
167.435887 74.112 91.3740
168.649196 75.532 81.5701
169.871298 76.520 73.2716
171.102255 77.141 65.7942
172.342133 77.402 58.8285
173.590995 77.434 54.7845
174.848907 77.673 55.8181
176.115934 78.508 59.1118
177.392143 79.746 58.3175
178.677599 80.875 51.9474
179.972371 81.592 42.5308
181.276525 81.814 32.5157
182.590129 81.608 24.1938
183.913252 81.206 19.3677
185.245964 80.997 18.6295
186.588332 81.340 19.6785
187.940428 82.134 17.0782
189.302322 82.925 9.0833
190.674085 83.387 -2.3619
192.055788 83.378 -15.6443
193.447503 82.825 -29.2898
194.849303 81.719 -41.6677
196.261262 80.108 -51.3064
197.683452 78.093 -57.1794
199.115948 75.800 -59.6489
200.558824 73.371 -60.1444
202.012156 71.557 -54.7712
203.476019 72.613 33.4915
204.950490 75.960 57.0383
206.435646 79.204 48.1508
207.931564 81.747 34.0686
209.438322 83.559 17.2736
210.955998 84.680 -0.7159
212.484672 85.216 -18.0629
214.024424 85.366 -33.4386
215.575333 85.353 -47.2241
217.137481 85.296 -60.8676
218.710948 85.190 -75.3721
220.295818 84.970 -91.2849
221.892172 84.529 -108.7661
223.500094 83.771 -127.2168
225.119668 82.653 -145.7280
226.750978 81.210 -163.0815
228.394109 79.621 -178.0239
230.049147 78.264 169.1172
231.716178 77.510 155.7942
233.395289 77.369 139.7178
235.086567 77.520 120.4541
236.790102 77.624 98.6816
238.505980 77.440 75.3298
240.234293 76.808 51.3376
241.975130 75.617 27.0840
243.728581 73.873 1.8704
245.494739 72.253 -28.2522
247.273695 72.554 141.2988
249.065542 74.510 113.5103
250.870374 76.374 92.0403
252.688284 77.656 74.0388
254.519367 78.390 58.5366
256.363720 78.692 45.6277
258.221437 78.767 36.2729
260.092616 78.827 29.3213
261.977354 78.922 22.9766
263.875750 79.092 18.1396
265.787903 79.497 15.1628
267.713911 80.188 11.6709
269.653877 80.923 4.5803
271.607900 81.357 -5.9836
273.576083 81.330 -16.9851
275.558528 80.942 -25.3640
277.555338 80.492 -29.8838
279.566619 80.361 -31.3730
281.592474 80.809 -32.0007
283.633009 81.713 -35.7490
285.688331 82.628 -44.9917
287.758546 83.186 -58.2524
289.843763 83.272 -72.7949
291.944090 82.964 -86.6689
294.059638 82.392 -99.5654
296.190515 81.626 -111.8394
298.336833 80.670 -123.7134
300.498705 79.506 -134.9937
302.676243 78.167 -144.6516
304.869559 76.820 -151.6165
307.078770 75.767 -156.2605
309.303989 75.233 -162.1572
311.545334 75.092 -172.4963
313.802919 75.057 172.3040
316.076865 74.909 152.1963
318.367288 74.494 126.8948
320.674309 73.713 96.5872
322.998047 72.638 62.5781
325.338624 71.630 25.7507
327.696162 71.017 -13.4822
330.070783 70.645 -52.0271
332.462612 70.321 -85.9988
334.871773 70.215 -114.7778
337.298392 70.309 -143.0083
339.742595 70.009 -174.5325
342.204510 68.759 153.1011
344.684265 66.565 126.5728
347.181989 64.962 -174.3904
349.697813 66.493 -128.1248
352.231868 69.489 -142.8398
354.784285 72.152 -160.7065
357.355198 74.163 179.5862
359.944741 75.586 160.1365
362.553049 76.576 142.2563
365.180258 77.286 126.1289
367.826505 77.810 111.0283
370.491927 78.191 96.7217
373.176665 78.469 82.9736
375.880856 78.620 68.9705
378.604644 78.504 53.7263
381.348169 77.970 38.4780
384.111575 77.045 25.3298
386.895006 75.852 14.0801
389.698607 74.452 3.6606
392.522524 72.789 -8.6011
395.366904 70.959 -16.5469
398.231895 70.420 48.1501
401.117648 71.808 64.0671
404.024312 72.950 45.4224
406.952038 72.924 27.3594
409.900981 72.254 21.9307
412.871292 72.330 32.6689
415.863128 73.575 35.6438
418.876643 75.034 28.2310
421.911996 76.254 17.6216
424.969344 77.096 3.9500
428.048847 77.346 -12.7820
431.150666 77.085 -26.9321
434.274961 76.841 -36.7942
437.421897 76.746 -50.2424
440.591636 76.356 -67.2463
443.784345 75.718 -80.3105
447.000189 75.609 -88.1187
450.239337 76.354 -99.4177
453.501956 77.278 -118.7446
456.788219 77.931 -141.1072
460.098294 78.333 -163.6819
463.432356 78.379 172.7373
466.790578 77.904 150.5435
470.173135 76.968 132.8909
473.580203 75.858 121.7546
477.011961 75.127 117.1494
480.468586 75.517 119.1580
483.950259 77.127 121.9150
487.457163 78.859 112.2827
490.989478 79.771 93.5615
494.547390 79.611 74.2351
498.131084 78.607 61.2070
501.740748 77.467 58.2559
505.376568 77.230 63.2766
509.038735 78.137 64.2168
512.727439 79.261 55.1003
516.442874 79.818 38.8628
520.185232 79.475 19.8530
523.954708 78.166 1.7646
527.751500 75.915 -12.4172
531.575805 72.878 -18.6196
535.427822 69.969 12.2917
539.307753 70.343 78.6833
543.215800 73.697 99.0100
547.152165 76.861 93.6807
551.117055 78.839 75.9768
555.110677 79.422 55.0168
559.133237 78.900 41.6562
563.184947 78.313 39.9431
567.266018 78.834 45.6238
571.376661 80.458 49.9446
575.517092 81.874 37.8552
579.687526 82.275 19.2607
583.888181 81.768 4.7607
588.119275 80.926 -4.1958
592.381030 79.894 -15.5908
596.673667 78.285 -25.2205
600.997410 76.631 -13.5410
605.352485 76.875 14.8591
609.739119 78.769 17.9048
614.157540 80.642 8.3965
618.607979 81.866 -7.8352
623.090667 82.116 -29.4949
627.605839 81.157 -52.2268
632.153730 78.990 -63.7700
636.734576 76.453 -45.9478
641.348617 75.176 -34.3115
645.996094 75.785 -22.3467
650.677248 77.273 -24.7285
655.392323 78.481 -38.4338
660.141566 79.078 -56.6226
664.925224 78.854 -78.2234
669.743546 77.755 -98.6101
674.596784 76.280 -112.4495
679.485191 75.406 -126.1985
684.409020 75.409 -148.3064
689.368530 75.912 -177.3865
694.363979 76.122 145.5706
699.395626 75.194 109.5464
704.463736 73.342 92.1851
709.568570 72.421 94.5789
714.710396 73.834 111.0432
719.889483 75.819 104.2803
725.106099 76.795 84.3296
730.360516 76.966 72.4634
735.653010 77.509 73.1050
740.983855 78.726 70.6582
746.353329 79.996 63.3496
751.761713 81.092 55.0332
757.209288 82.288 50.1296
762.696339 83.766 44.7080
768.223151 85.152 33.1716
773.790013 86.297 20.0125
779.397214 87.153 4.2378
785.045047 87.315 -16.0940
790.733808 86.539 -34.8154
796.463791 85.352 -43.9116
802.235296 84.762 -49.9685
808.048623 84.720 -65.5044
813.904077 84.295 -90.8877
819.801961 82.792 -123.3813
825.742584 80.380 -160.5601
831.726255 78.427 -6.7871
837.753287 77.818 -34.2671
843.823992 77.837 -60.3547
849.938689 77.743 -94.1074
856.097695 78.064 98.2998
862.301332 79.590 38.7910
868.549922 81.339 10.0352
874.843793 82.454 -13.8008
881.183272 83.078 -32.9048
887.568689 83.223 -51.8799
894.000378 82.725 -69.3867
900.478673 81.874 -81.6113
907.003913 81.211 -90.6279
913.576437 80.625 -105.0576
920.196588 79.665 -117.8994
926.864712 79.252 -116.8599
933.581156 80.173 -126.7632
940.346270 81.153 -155.2456
947.160407 81.184 165.1982
954.023921 80.100 120.4082
960.937172 78.330 75.4038
967.900519 76.549 33.6733
974.914325 75.088 -4.6660
981.978956 74.077 -42.3896
989.094780 73.744 -100.9048
996.262169 74.585 93.4170
1003.481495 76.414 51.1475
1010.753136 78.192 21.0034
1018.077470 79.162 -8.4810
1025.454879 79.330 -36.5352
1032.885748 78.599 -65.7695
1040.370463 76.617 -85.8345
1047.909417 73.855 -62.4312
1055.503000 71.975 -55.9150
1063.151610 71.742 -69.2231
1070.855645 72.794 -42.3047
1078.615506 74.544 -5.2339
1086.431599 75.716 -28.3491
1094.304330 76.521 -39.2964
1102.234110 77.258 -52.8926
1110.221353 76.796 -79.6978
1118.266475 74.889 -97.2329
1126.369895 72.987 -95.1372
1134.532035 72.930 -105.7314
1142.753322 73.863 -143.2583
1151.034184 74.689 141.7134
1159.375052 76.258 66.3472
1167.776361 78.794 23.7417
1176.238550 81.040 -11.8984
1184.762060 82.057 -50.1631
1193.347334 81.397 -87.3843
1201.994821 79.403 -110.3887
1210.704971 77.551 -114.9834
1219.478238 77.298 -125.1421
1228.315080 77.638 -151.3970
1237.215957 77.071 171.4863
1246.181334 75.896 133.6582
1255.211678 74.468 95.4170
1264.307459 72.984 70.3662
1273.469152 72.998 65.9458
1282.697235 74.430 51.2949
1291.992188 75.503 28.4087
1301.354495 75.604 7.0293
1310.784647 75.334 -3.5903
1320.283132 75.568 -11.5972
1329.850448 75.679 -28.0259
1339.487093 74.832 -44.8623
1349.193569 73.767 -33.2354
1358.970381 74.805 -3.3398
1368.818041 77.193 -6.5981
1378.737061 79.055 -22.8081
1388.727958 80.109 -41.9380
1398.791253 80.537 -61.5879
1408.927471 80.232 -82.9434
1419.137140 79.076 -102.3530
1429.420793 77.559 -122.3296
1439.778965 76.457 -135.5601
1450.212197 76.652 -23.9746
1460.721033 77.875 -46.9351
1471.306019 78.675 -72.4404
1481.967709 78.331 -92.8062
1492.706658 77.733 -103.1953
1503.523426 77.652 -117.3291
1514.418576 77.299 -142.9595
1525.392678 76.293 -177.4746
1536.446302 75.361 92.5708
1547.580025 75.023 -49.3721
1558.794428 74.847 -59.4365
1570.090095 75.123 -64.9331
1581.467615 75.807 -76.6025
1592.927581 76.334 -92.9502
1604.470591 76.067 -110.2988
1616.097246 75.299 -115.7246
1627.808153 75.969 -103.3271
1639.603922 77.822 -109.2612
1651.485168 78.683 -133.0820
1663.452510 78.379 -156.0894
1675.506573 77.919 175.7974
1687.647984 77.107 121.7871
1699.877377 76.487 -5.1953
1712.195390 77.516 -57.0732
1724.602663 79.023 -89.3979
1737.099845 79.869 -115.7842
1749.687587 80.181 -137.1094
1762.366544 79.736 -160.7749
1775.137379 78.660 176.1484
1788.000756 77.162 157.1851
1800.957346 75.784 -173.5708
1814.007826 76.335 -104.2349
1827.152874 77.565 -122.9922
1840.393177 77.652 -149.3237
1853.729425 76.956 -167.2061
1867.162312 76.406 -177.2588
1880.692540 77.158 -169.4111
1894.320813 79.141 -165.3765
1908.047843 80.131 168.7466
1921.874344 79.067 133.4756
1935.801038 76.852 103.0708
1949.828650 76.217 -87.7461
1963.957912 77.355 -125.4121
1978.189561 78.310 -154.4800
1992.524338 78.828 -177.5220
2006.962991 78.753 157.3232
2021.506272 77.676 137.9966
2036.154940 77.228 -170.0815
2050.909758 78.933 -157.0049
2065.771495 80.573 -178.1978
2080.740927 80.778 158.1606
2095.818833 80.082 140.5664
2111.006001 78.897 133.9546
2126.303220 78.251 154.2139
2141.711290 78.959 153.7202
2157.231013 79.789 143.0449
2172.863198 80.189 131.8838
2188.608660 79.755 114.3970
2204.468221 78.870 105.5195
2220.442706 78.613 101.5728
2236.532950 78.532 84.8413
2252.739789 78.039 72.4219
2269.064070 77.505 50.7817
2285.506644 77.278 -163.2915
2302.068367 77.578 165.2324
2318.750104 77.916 139.2002
2335.552723 77.627 121.8696
2352.477101 77.242 118.4126
2369.524119 77.485 132.4375
2386.694668 78.196 127.6240
2403.989641 79.328 120.6431
2421.409941 80.950 112.4487
2438.956476 81.745 88.8794
2456.630160 80.697 62.8916
2474.431915 78.103 56.1455
2492.362668 75.364 72.4170
2510.423356 74.055 78.8477
2528.614918 74.709 91.1533
2546.938304 76.902 105.9136
2565.394469 78.692 85.0938
2583.984375 79.124 49.3130
2602.708991 78.728 0.1592
2621.569293 79.060 -102.1538
2640.566265 80.170 -177.7793
2659.700897 81.309 147.1406
2678.974186 81.931 117.4077
2698.387137 81.514 89.4258
2717.940763 80.071 76.1587
2737.636082 78.458 81.2139
2757.474121 78.040 80.4873
2777.455915 78.524 69.4653
2797.582506 78.516 51.2246
2817.854942 77.223 31.7915
2838.274281 75.189 31.4795
2858.841586 74.603 105.1543
2879.557931 74.742 107.1899
2900.424394 74.971 101.6260
2921.442065 75.779 101.5649
2942.612039 77.296 102.4067
2963.935418 78.748 93.6836
2985.413316 79.148 76.4531
3007.046852 78.559 63.9067
3028.837153 77.871 78.1641
3050.785356 78.593 81.0986
3072.892604 79.722 62.9453
3095.160050 79.674 35.0049
3117.588856 77.816 7.3677
3140.180190 74.624 0.4746
3162.935230 72.635 101.8989
3185.855163 73.301 102.4761
3208.941182 74.640 93.3833
3232.194493 75.469 83.1406
3255.616307 76.035 86.3730
3279.207844 77.129 83.4282
3302.970336 78.310 69.4326
3326.905021 78.481 50.1792
3351.013146 77.223 33.3140
3375.295969 74.696 25.9395
3399.754755 72.219 58.3716
3424.390779 72.143 78.9785
3449.205326 73.064 73.6826
3474.199690 72.973 67.0112
3499.375173 72.974 77.9067
3524.733088 74.329 86.2339
3550.274757 75.880 78.7495
3576.001511 76.405 63.0288
3601.914692 75.760 51.7441
3628.015651 75.156 60.8662
3654.305748 75.376 64.7925
3680.786354 75.325 53.4736
3707.458849 74.614 44.1489
3734.324624 73.930 40.8560
3761.385080 74.101 54.1167
3788.641627 74.851 84.9097
3816.095686 75.440 76.4312
3843.748688 75.488 68.5396
3871.602076 75.819 67.5645
3899.657300 76.075 58.5874
3927.915825 75.723 51.3525
3956.379122 75.354 49.8530
3985.048676 75.017 40.3931
4013.925981 74.321 32.6602
4043.012544 73.550 48.0337
4072.309879 72.984 67.2002
4101.819515 73.322 69.1270
4131.542990 74.419 65.2212
4161.481854 74.852 55.2900
4191.637667 74.255 54.9805
4222.012001 73.627 55.0029
4252.606441 73.766 58.0908
4283.422580 74.804 59.6475
4314.462026 75.363 43.6401
4345.726396 74.535 30.8462
4377.217321 73.442 55.1011
4408.936442 73.688 73.5337
4440.885413 74.664 70.4277
4473.065899 75.469 61.7070
4505.479579 75.673 50.1816
4538.128141 75.231 39.8433
4571.013288 74.627 40.3638
4604.136735 74.527 48.8828
4637.500207 74.741 51.1777
4671.105446 74.895 45.1787
4704.954201 74.782 44.6338
4739.048239 74.845 39.8228
4773.389336 75.154 38.4404
4807.979283 75.762 75.8369
4842.819883 76.077 63.4707
4877.912952 75.723 41.5869
4913.260320 74.623 24.8535
4948.863830 73.086 37.1226
4984.725337 72.324 58.3716
5020.846712 72.923 74.0396
5057.229836 73.942 73.1455
5093.876609 74.386 62.6216
5130.788938 74.656 56.3555
5167.968750 74.718 48.8682
5205.417982 74.242 50.0303
5243.138586 73.930 51.1694
5281.132530 73.932 46.5825
5319.401793 74.008 47.8584
5357.948371 74.363 61.1514
5396.774274 75.050 62.0068
5435.881525 75.609 52.8433
5475.272163 75.666 42.8145
5514.948243 75.037 39.5586
5554.911831 74.109 37.3057
5595.165012 72.992 35.6255
5635.709884 72.497 45.5596
5676.548561 73.551 66.8613
5717.683172 75.162 69.0024
5759.115861 75.886 51.2881
5800.848789 75.460 42.1436
5842.884130 75.231 47.9019
5885.224077 74.872 42.0898
5927.870837 74.250 47.2949
5970.826633 74.572 52.1431
6014.093704 75.452 45.7524
6057.674306 75.947 33.4966
6101.570711 75.498 26.1284
6145.785208 74.546 24.4292
6190.320101 73.679 20.5195
6235.177712 73.264 31.5278
6280.360380 73.619 43.5933
6325.870460 74.000 38.9448
6371.710325 74.101 33.7388
6417.882365 73.991 27.7271
6464.388986 73.555 27.1133
6511.232613 73.432 37.2754
6558.415689 74.084 43.2134
6605.940673 74.860 37.8608
6653.810042 74.959 22.9951
6702.026292 74.571 26.9316
6750.591937 74.720 37.7388
6799.509509 74.513 22.0000
6848.781558 73.417 17.3237
6898.410653 72.961 39.2139
6948.399380 73.452 37.1270
6998.750346 73.582 28.1206
7049.466176 73.368 24.8643
7100.549514 73.166 28.9131
7152.003023 73.745 45.8384
7203.829385 74.664 38.4497
7256.031302 75.050 30.9390
7308.611496 75.354 38.0415
7361.572708 75.397 28.3228
7414.917698 74.920 18.9756
7468.649249 74.799 23.8989
7522.770160 75.109 28.2993
7577.283253 74.935 21.6143
7632.191371 74.351 20.1304
7687.497376 73.835 19.6621
7743.204151 73.406 27.8271
7799.314600 73.488 38.1313
7855.831649 74.071 34.7710
7912.758244 74.262 25.7725
7970.097352 73.943 21.3940
8027.851962 73.961 27.3237
8086.025087 74.778 36.3320
8144.619758 75.575 34.4473
8203.639030 76.183 29.6157
8263.085980 75.914 17.8960
8322.963708 75.134 18.2354
8383.275334 75.235 33.7754
8444.024002 76.048 33.9595
8505.212881 76.840 27.7319
8566.845160 77.016 11.8521
8628.924051 76.009 6.3447
8691.452792 75.051 22.9653
8754.434642 74.938 24.5464
8817.872884 75.055 19.9053
8881.770826 74.669 17.0659
8946.131799 74.556 25.1748
9010.959157 75.279 26.1128
9076.256282 76.504 21.8149
9142.026576 77.163 7.7368
9208.273470 76.789 2.1875
9275.000415 76.518 18.5977
9342.210891 76.659 21.7339
9409.908403 76.890 17.0439
9478.096478 76.735 5.1328
9546.778672 76.143 0.9390
9615.958566 76.373 11.0312
9685.639765 77.035 5.9131
9755.825904 76.763 -7.9536
9826.520640 75.861 -11.1216
9897.727659 75.340 -9.1479
9969.450674 75.260 -6.4990
10041.693423 75.205 -11.4683
10114.459673 74.814 -17.7139
10187.753217 74.420 -8.1650
10261.577877 74.547 -0.8960
10335.937500 74.698 -6.8818
10410.835964 74.377 -12.9771
10486.277173 73.988 -11.2104
10562.265060 74.199 -5.9644
10638.803587 74.565 -11.7852
10715.896743 74.318 -17.2168
10793.548548 74.148 -2.5015
10871.763050 74.692 -1.6592
10950.544327 74.979 -11.7925
11029.896485 74.747 -19.5518
11109.823662 74.415 -22.2241
11190.330024 74.535 -19.7148
11271.419768 74.448 -29.8452
11353.097122 73.255 -37.6240
11435.366344 71.853 -29.3579
11518.231722 71.247 -23.6431
11601.697577 70.974 -28.2544
11685.768261 71.036 -22.3667
11770.448155 71.664 -14.0049
11855.741674 71.603 -23.9282
11941.653265 70.753 -29.6562
12028.187408 70.431 -16.9497
12115.348612 70.963 -13.1377
12203.141422 71.000 -18.8599
12291.570415 70.606 -7.5576
12380.640201 70.441 -5.5117
12470.355424 70.158 -12.1831
12560.720760 70.301 -5.1279
12651.740920 71.243 2.0859
12743.420650 71.898 -2.6304
12835.764729 72.190 -7.7759
12928.777972 72.493 -9.2285
13022.465227 72.815 -13.6494
13116.831378 73.105 -16.5981
13211.881345 73.453 -20.7217
13307.620084 73.356 -27.1099
13404.052584 72.697 -32.9570
13501.183875 71.988 -31.3975
13599.019019 71.841 -29.2671
13697.563116 71.886 -36.8364
13796.821305 71.284 -47.2612
13896.798760 70.188 -47.7803
13997.500692 69.562 -45.4209
14098.932352 69.693 -41.2573
14201.099028 70.274 -38.6475
14304.006046 70.530 -45.5771
14407.658770 70.043 -52.9048
14512.062604 69.234 -54.8784
14617.222992 68.280 -59.2617
14723.145416 67.124 -61.4048
14829.835397 66.467 -57.5186
14937.298497 66.397 -60.8633
15045.540320 66.199 -61.4814
15154.566507 65.928 -61.3750
15264.382743 65.226 -69.9165
15374.994752 64.133 -70.8042
15486.408302 63.417 -69.4272
15598.629201 62.818 -73.7627
15711.663298 62.287 -72.5532
15825.516487 61.868 -76.8394
15940.194703 61.318 -75.5034
16055.703925 61.074 -47.1968
16172.050174 61.140 -39.7993
16289.239516 60.977 -20.9829
16407.278061 60.555 -19.5029
16526.171961 59.974 -15.2910
16645.927415 60.208 19.7798
16766.550667 61.264 29.5200
16888.048005 61.967 33.1362
17010.425762 61.942 20.2021
17133.690320 61.637 16.8237
17257.848103 62.117 25.3882
17382.905584 63.291 32.1973
17508.869284 64.065 27.4346
17635.745768 63.942 18.3110
17763.541652 63.541 16.5400
17892.263597 63.137 11.8481
18021.918315 62.835 13.2246
18152.512564 62.945 15.0894
18284.053153 63.381 15.7134
18416.546939 64.102 13.2080
18550.000830 64.673 6.7959
18684.421783 64.876 -0.8794
18819.816805 64.617 -11.2759
18956.192956 63.806 -20.4199
19093.557344 62.665 -25.1255
19231.917131 61.587 -26.2100
19371.279531 60.855 -26.0503
19511.651807 60.485 -29.3438
19653.041280 60.081 -34.9282
19795.455318 59.320 -41.4639
19938.901348 58.303 -47.2803
