* Measurement data measured by REW V5.31.1
* Source: Scarlett 2i4 USB, MICROPHONE, R, volume: no control
* Format: 512k Log Swept Sine, 1 sweep at -18.0 dBFS with no timing reference
* Dated: May 7, 2024 3:45:16 PM
* REW Settings:
*  C-weighting compensation: Off
*  Target level: 75.0 dB
* Note: ; 
* Measurement: front-l12-r1-p1-c
* Smoothing: 1/48 octave
* Frequency Step: 96 ppo
* Start Frequency: 10.093689 Hz
*
* Freq(Hz) SPL(dB) Phase(degrees)
10.093689 43.365 49.3408
10.166832 43.356 48.1279
10.240505 43.345 47.1949
10.314712 43.334 46.4352
10.389457 43.332 45.7439
10.464743 43.372 45.0639
10.540575 43.478 44.5932
10.616956 43.629 44.2137
10.693891 43.817 43.7398
10.771383 44.040 42.9945
10.849437 44.303 42.0656
10.928057 44.605 41.0458
11.007246 44.928 39.8502
11.087009 45.255 38.3944
11.167350 45.582 36.6374
11.248273 45.915 34.6738
11.329783 46.247 32.5655
11.411883 46.569 30.3498
11.494578 46.873 28.0079
11.577873 47.162 25.4912
11.661771 47.439 22.9061
11.746277 47.704 20.3533
11.831395 47.955 17.8655
11.917130 48.190 15.3395
12.003487 48.417 12.8374
12.090469 48.644 10.4423
12.178081 48.874 8.2079
12.266329 49.102 6.0773
12.355216 49.340 4.0190
12.444747 49.597 2.0215
12.534926 49.879 0.1586
12.625760 50.181 -1.5816
12.717251 50.508 -3.3416
12.809406 50.863 -5.2293
12.902228 51.250 -7.0898
12.995723 51.662 -8.9803
13.089895 52.088 -11.0635
13.184750 52.526 -13.4094
13.280292 52.977 -15.8591
13.376526 53.429 -18.4616
13.473458 53.869 -21.3075
13.571093 54.296 -24.4107
13.669434 54.707 -27.6702
13.768489 55.092 -31.0429
13.868261 55.443 -34.6025
13.968756 55.761 -38.3946
14.069979 56.041 -42.2433
14.171936 56.276 -46.0785
14.274632 56.465 -50.1477
14.378072 56.605 -54.2866
14.482261 56.689 -58.2713
14.587206 56.717 -62.3426
14.692910 56.684 -66.4999
14.799381 56.585 -70.4415
14.906624 56.417 -74.2279
15.014643 56.176 -78.0384
15.123446 55.853 -81.5575
15.233036 55.443 -84.6477
15.343421 54.942 -87.5079
15.454606 54.344 -89.8471
15.566596 53.633 -91.3328
15.679398 52.816 -91.9125
15.793018 51.949 -91.2751
15.907460 51.034 -88.8361
16.022732 50.119 -84.0057
16.138840 49.468 -76.9012
16.255788 49.272 -67.8576
16.373585 49.479 -57.8476
16.492234 50.019 -49.2579
16.611744 50.895 -42.8946
16.732119 51.968 -38.6347
16.853367 53.003 -36.2841
16.975494 53.959 -35.3870
17.098505 54.844 -35.4318
17.222408 55.632 -36.0949
17.347209 56.322 -37.3120
17.472914 56.934 -38.7821
17.599530 57.475 -40.3900
17.727063 57.948 -42.1693
17.855521 58.368 -43.9191
17.984909 58.741 -45.6740
18.115235 59.072 -47.4098
18.246506 59.372 -49.0420
18.378727 59.642 -50.6264
18.511907 59.890 -52.1236
18.646052 60.118 -53.5375
18.781169 60.328 -54.8752
18.917265 60.523 -56.1143
19.054347 60.702 -57.2793
19.192423 60.867 -58.3118
19.331499 61.019 -59.2267
19.471583 61.160 -59.9852
19.612682 61.297 -60.5170
19.754804 61.433 -60.8477
19.897956 61.586 -60.9188
20.042144 61.762 -60.7134
20.187378 61.980 -60.3365
20.333664 62.255 -59.7770
20.481010 62.590 -59.1884
20.629424 62.993 -58.7763
20.778913 63.457 -58.5239
20.929486 63.960 -58.7479
21.081150 64.492 -59.3452
21.233912 65.022 -60.4278
21.387782 65.534 -61.9825
21.542767 66.008 -63.8460
21.698874 66.429 -66.0525
21.856113 66.791 -68.3802
22.014492 67.085 -70.7286
22.174018 67.318 -73.0182
22.334700 67.497 -74.9806
22.496546 67.637 -76.6686
22.659566 67.766 -77.8282
22.823766 67.905 -78.5476
22.989157 68.097 -78.8550
23.155745 68.352 -78.8270
23.323542 68.692 -78.8404
23.492554 69.107 -78.9125
23.662790 69.568 -79.4388
23.834261 70.054 -80.3211
24.006973 70.522 -81.6412
24.180938 70.957 -83.2569
24.356163 71.336 -84.9363
24.532658 71.666 -86.5833
24.710431 71.962 -87.8379
24.889493 72.257 -88.7229
25.069853 72.601 -89.0053
25.251519 73.039 -89.0357
25.434502 73.611 -89.0232
25.618811 74.310 -89.2114
25.804456 75.121 -90.1449
25.991445 75.977 -92.2362
26.179790 76.834 -95.2671
26.369500 77.631 -99.3746
26.560584 78.339 -104.2427
26.753053 78.928 -109.8037
26.946917 79.384 -115.6867
27.142185 79.697 -121.9260
27.338869 79.864 -127.9813
27.536977 79.887 -133.9865
27.736522 79.779 -139.3425
27.937512 79.560 -144.0908
28.139959 79.264 -147.7845
28.343872 78.962 -150.4225
28.549264 78.713 -151.8421
28.756143 78.608 -152.4970
28.964522 78.673 -152.8271
29.174411 78.912 -153.4288
29.385821 79.248 -154.9042
29.598763 79.618 -157.2635
29.813248 79.939 -160.5701
30.029287 80.168 -164.4000
30.246891 80.280 -168.6460
30.466073 80.266 -172.7962
30.686842 80.141 -176.6392
30.909212 79.925 -179.9447
31.133193 79.664 177.5683
31.358797 79.405 175.8610
31.586035 79.192 174.9657
31.814921 79.065 174.5701
32.045465 79.031 174.4503
32.277680 79.088 174.3967
32.511577 79.217 174.2254
32.747169 79.408 173.9075
32.984469 79.656 173.3990
33.223488 79.960 172.6491
33.464239 80.315 171.4893
33.706735 80.703 169.8257
33.950987 81.097 167.5733
34.197010 81.459 164.7162
34.444816 81.762 161.4246
34.694417 81.989 157.8562
34.945827 82.133 154.2200
35.199059 82.211 150.7992
35.454126 82.251 147.6883
35.711041 82.288 144.9042
35.969818 82.354 142.3697
36.230470 82.463 139.7980
36.493011 82.602 136.9406
36.757455 82.740 133.6691
37.023814 82.838 129.9410
37.292104 82.858 125.8669
37.562338 82.778 121.7350
37.834530 82.599 117.8108
38.108695 82.338 114.3312
38.384846 82.029 111.4952
38.662999 81.720 109.3759
38.943167 81.455 107.8044
39.225365 81.256 106.4880
39.509608 81.117 105.1453
39.795911 81.009 103.5900
40.084289 80.897 101.7854
40.374756 80.752 99.8473
40.667328 80.562 97.9936
40.962020 80.333 96.4464
41.258848 80.088 95.3657
41.557827 79.859 94.8278
41.858972 79.682 94.8004
42.162299 79.589 95.1311
42.467824 79.599 95.5666
42.775564 79.712 95.8085
43.085533 79.909 95.5914
43.397749 80.154 94.7485
43.712227 80.411 93.2378
44.028983 80.645 91.1230
44.348036 80.835 88.5264
44.669400 80.965 85.5862
44.993093 81.030 82.4332
45.319131 81.028 79.1837
45.647532 80.958 75.9473
45.978313 80.825 72.8358
46.311491 80.637 69.9624
46.647083 80.408 67.4244
46.985107 80.160 65.2698
47.325581 79.915 63.4651
47.668521 79.689 61.8935
48.013947 79.485 60.4005
48.361876 79.291 58.8713
48.712326 79.089 57.2917
49.065315 78.866 55.7523
49.420863 78.620 54.3961
49.778987 78.366 53.3347
50.139706 78.127 52.5749
50.503039 77.919 52.0036
50.869005 77.745 51.4463
51.237623 77.592 50.7729
51.608912 77.438 49.9735
51.982891 77.269 49.1498
52.359580 77.086 48.4320
52.739000 76.901 47.8813
53.121168 76.725 47.4481
53.506106 76.558 47.0270
53.893833 76.385 46.5706
54.284370 76.194 46.1638
54.677737 75.982 45.9991
55.073955 75.771 46.2412
55.473043 75.593 46.8736
55.875024 75.467 47.6728
56.279917 75.382 48.3857
56.687745 75.304 48.9607
57.098527 75.206 49.6719
57.512287 75.107 51.0000
57.929045 75.079 53.3138
58.348822 75.224 56.5262
58.771642 75.616 59.9484
59.197525 76.248 62.6289
59.626495 77.048 63.9080
60.058573 77.927 63.5662
60.493782 78.807 61.6128
60.932145 79.627 58.1650
61.373685 80.335 53.4219
61.818424 80.893 47.6749
62.266386 81.276 41.3221
62.717593 81.484 34.7581
63.172071 81.540 28.3663
63.629842 81.485 22.4319
64.090930 81.371 17.0470
64.555359 81.249 12.1323
65.023154 81.156 7.4528
65.494339 81.111 2.7134
65.968938 81.109 -2.3879
66.446976 81.129 -8.0513
66.928478 81.150 -14.3779
67.413469 81.155 -21.4137
67.901975 81.136 -29.2199
68.394021 81.087 -37.9017
68.889632 81.001 -47.6068
69.388835 80.877 -58.4571
69.891655 80.721 -70.6102
70.398118 80.552 -84.2174
70.908252 80.399 -99.5115
71.422083 80.288 -116.5793
71.939636 80.229 -135.3322
72.460941 80.219 -155.1740
72.986023 80.244 -175.2787
73.514909 80.288 165.4471
74.047629 80.353 147.8586
74.584208 80.469 132.5073
75.124676 80.687 119.4490
75.669061 81.049 108.2404
76.217390 81.552 98.1237
76.769692 82.149 88.4385
77.325997 82.784 78.7841
77.886333 83.406 68.9256
78.450730 83.969 58.6860
79.019216 84.414 48.0012
79.591822 84.688 37.1393
80.168577 84.778 26.6605
80.749512 84.734 17.1850
81.334656 84.668 9.0270
81.924040 84.691 1.7640
82.517696 84.840 -5.4806
83.115653 85.059 -13.3965
83.717943 85.260 -22.1020
84.324598 85.381 -31.2691
84.935649 85.403 -40.4363
85.551128 85.349 -49.1800
86.171066 85.274 -57.2604
86.795497 85.243 -64.7443
87.424453 85.301 -71.9580
88.057967 85.467 -79.3328
88.696071 85.724 -87.4185
89.338800 85.997 -96.8198
89.986185 86.155 -107.7569
90.638262 86.064 -119.6934
91.295065 85.655 -131.4368
91.956626 84.962 -141.5110
92.622982 84.153 -148.5925
93.294166 83.529 -152.2749
93.970214 83.384 -154.2983
94.651161 83.706 -157.9849
95.337042 84.160 -164.9246
96.027894 84.444 -174.0839
96.723752 84.464 176.2839
97.424652 84.267 167.2322
98.130631 83.920 159.0272
98.841726 83.463 151.8341
99.557974 82.950 145.9414
100.279412 82.447 141.3682
101.006078 82.013 138.0354
101.738010 81.721 136.0288
102.475245 81.649 134.6727
103.217823 81.757 132.5125
103.965782 81.899 129.2660
104.719161 82.008 125.9626
105.477999 82.144 123.2878
106.242336 82.393 120.9346
107.012212 82.785 118.1685
107.787666 83.278 114.2296
108.568740 83.766 108.5447
109.355474 84.115 101.1588
110.147909 84.234 92.8434
110.946086 84.119 84.7122
111.750047 83.852 77.3989
112.559834 83.511 70.3767
113.375489 83.061 62.7057
114.197055 82.380 54.4718
115.024574 81.384 46.7935
115.858089 80.081 40.7551
116.697645 78.519 36.6350
117.543284 76.700 34.6735
118.395051 74.656 37.6844
119.252990 72.858 52.5592
120.117147 72.348 75.6694
120.987565 73.121 87.8667
121.864291 74.117 90.7517
122.747370 74.920 91.8542
123.636848 75.702 94.3477
124.532771 76.647 96.6376
125.435187 77.676 96.2679
126.344142 78.613 92.9950
127.259684 79.316 87.1707
128.181860 79.654 79.2802
129.110718 79.522 70.2513
130.046308 78.826 61.0671
130.988677 77.476 53.6765
131.937875 75.657 54.5096
132.893951 74.773 82.2280
133.856956 76.466 118.0942
134.826938 79.157 123.5125
135.803950 81.407 116.5638
136.788041 82.934 105.2712
137.779264 83.772 92.9546
138.777669 84.081 82.0093
139.783309 84.102 73.3750
140.796237 83.999 65.9575
141.816504 83.764 58.6580
142.844165 83.331 51.8726
143.879273 82.710 46.7394
144.921881 82.018 44.1356
145.972045 81.422 43.6018
147.029819 81.027 43.9789
148.095257 80.901 45.0791
149.168417 81.124 46.2753
150.249353 81.646 45.1907
151.338121 82.253 40.5588
152.434780 82.759 32.9517
153.539385 83.048 22.5789
154.651995 83.019 9.5688
155.772667 82.601 -5.7705
156.901460 81.773 -23.5752
158.038432 80.587 -44.6575
159.183644 79.271 -70.9330
160.337154 78.358 -104.2888
161.499023 78.417 -140.7069
162.669312 79.301 -171.5509
163.848081 80.427 165.3174
165.035392 81.461 148.1660
166.231306 82.333 135.2534
167.435887 83.054 125.2661
168.649196 83.660 117.4755
169.871298 84.202 111.3997
171.102255 84.749 106.8160
172.342133 85.365 103.2041
173.590995 86.031 99.2679
174.848907 86.648 94.3633
176.115934 87.190 89.7052
177.392143 87.767 86.1143
178.677599 88.444 82.3195
179.972371 89.151 77.1953
181.276525 89.778 70.5743
182.590129 90.224 62.5967
183.913252 90.401 53.6161
185.245964 90.231 44.2114
186.588332 89.658 35.4857
187.940428 88.706 29.4823
189.302322 87.591 28.7386
190.674085 86.787 34.2385
192.055788 86.746 41.8600
193.447503 87.427 46.8798
194.849303 88.524 49.0480
196.261262 89.775 48.0984
197.683452 90.935 43.2234
199.115948 91.814 35.2750
200.558824 92.359 26.1836
202.012156 92.633 17.2225
203.476019 92.695 8.2302
204.950490 92.506 -1.3265
206.435646 91.974 -10.9419
207.931564 91.069 -18.7085
209.438322 89.931 -22.4624
210.955998 88.853 -22.2050
212.484672 88.059 -20.5613
214.024424 87.566 -18.7941
215.575333 87.396 -15.7209
217.137481 87.695 -11.3735
218.710948 88.453 -8.8870
220.295818 89.355 -11.1892
221.892172 90.062 -17.5194
223.500094 90.442 -25.4053
225.119668 90.527 -33.2209
226.750978 90.393 -40.5657
228.394109 90.076 -47.7072
230.049147 89.571 -54.4707
231.716178 88.894 -60.0934
233.395289 88.120 -64.0015
235.086567 87.402 -65.5211
236.790102 86.998 -64.4698
238.505980 87.082 -63.8922
240.234293 87.435 -67.8887
241.975130 87.639 -76.7336
243.728581 87.403 -88.4080
245.494739 86.594 -100.8470
247.273695 85.178 -111.8828
249.065542 83.210 -119.6656
250.870374 80.782 -123.9106
252.688284 77.965 -123.9233
254.519367 75.103 -110.2822
256.363720 73.738 -59.8376
258.221437 74.761 -37.0834
260.092616 76.404 -36.0785
261.977354 78.021 -34.6531
263.875750 79.809 -30.9055
265.787903 81.430 -35.0182
267.713911 82.308 -47.2362
269.653877 82.258 -59.8359
271.607900 81.656 -64.5989
273.576083 81.388 -59.9718
275.558528 81.984 -56.6145
277.555338 83.150 -57.6276
279.566619 84.438 -63.2283
281.592474 85.428 -74.7759
283.633009 85.824 -90.3264
285.688331 85.510 -106.9905
287.758546 84.482 -122.1178
289.843763 82.850 -132.9620
291.944090 80.867 -138.0027
294.059638 78.933 -136.8861
296.190515 77.503 -132.9824
298.336833 76.525 -134.6736
300.498705 75.471 -138.2269
302.676243 74.770 -123.6604
304.869559 75.649 -102.2117
307.078770 77.468 -102.6519
309.303989 79.220 -111.4043
311.545334 80.640 -124.1400
313.802919 81.504 -142.1891
316.076865 81.529 -164.1082
318.367288 80.577 174.7467
320.674309 78.820 160.7614
322.998047 77.213 163.5055
325.338624 77.514 177.1193
327.696162 79.224 172.5857
330.070783 80.642 154.5222
332.462612 81.283 133.3040
334.871773 81.266 113.5482
337.298392 80.834 97.1075
339.742595 80.369 85.9611
342.204510 80.405 79.5192
344.684265 81.024 71.5093
347.181989 81.620 57.4452
349.697813 81.675 40.6581
352.231868 81.141 26.0463
354.784285 80.272 15.6588
357.355198 79.505 10.7211
359.944741 79.495 11.3406
362.553049 80.404 9.5973
365.180258 81.411 -2.3424
367.826505 81.790 -20.4517
370.491927 81.526 -37.0073
373.176665 81.175 -49.3018
375.880856 81.170 -63.4486
378.604644 81.389 -82.6289
381.348169 81.652 -106.3545
384.111575 81.827 -135.2898
386.895006 81.774 -167.7820
389.698607 81.597 160.5837
392.522524 81.620 132.2891
395.366904 81.815 105.1084
398.231895 81.667 77.8125
401.117648 80.789 54.0459
404.024312 79.288 39.5010
406.952038 77.685 32.7317
409.900981 76.336 28.3933
412.871292 75.772 36.6514
415.863128 76.753 52.3391
418.876643 78.282 49.9385
421.911996 79.207 38.1838
424.969344 79.606 30.1890
428.048847 80.139 28.5166
431.150666 80.793 21.9368
434.274961 80.977 10.3069
437.421897 80.573 1.6086
440.591636 80.203 2.5996
443.784345 80.646 7.5449
447.000189 81.682 5.0969
450.239337 82.761 -1.8284
453.501956 83.604 -12.3569
456.788219 83.952 -26.7056
460.098294 83.527 -43.4885
463.432356 82.276 -56.3955
466.790578 81.113 -48.8901
470.173135 81.807 -26.7395
473.580203 83.633 -31.7151
477.011961 85.157 -48.1599
480.468586 86.170 -67.6099
483.950259 86.622 -91.0105
487.457163 86.291 -118.5808
490.989478 84.960 -147.8826
494.547390 82.595 -176.1614
498.131084 79.424 154.7095
501.740748 76.398 95.9019
505.376568 75.672 -42.8269
509.038735 77.243 -77.4880
512.727439 79.823 -97.4734
516.442874 82.670 -116.4211
520.185232 84.983 -143.9082
523.954708 86.359 -176.9282
527.751500 86.653 148.8215
531.575805 85.807 118.0386
535.427822 84.130 97.0481
539.307753 82.890 93.7703
543.215800 83.891 106.4124
547.152165 85.997 97.2988
551.117055 87.436 73.4868
555.110677 87.811 46.6157
559.133237 87.167 20.8296
563.184947 85.594 -2.4578
567.266018 83.177 -19.9268
571.376661 80.716 -0.6707
575.517092 80.507 43.5471
579.687526 82.063 35.1128
583.888181 83.318 16.9014
588.119275 83.562 -6.0549
592.381030 82.466 -30.2419
596.673667 79.955 -44.8713
600.997410 76.782 -14.2512
605.352485 75.398 27.3076
609.739119 76.693 34.3306
614.157540 78.941 37.5908
618.607979 81.468 40.0959
623.090667 83.808 33.6560
627.605839 85.626 20.8425
632.153730 86.792 4.6169
636.734576 87.336 -12.0837
641.348617 87.589 -25.6387
645.996094 88.056 -36.6565
650.677248 88.688 -52.0996
655.392323 88.897 -73.8298
660.141566 88.317 -97.6943
664.925224 86.968 -120.1191
669.743546 85.082 -138.8516
674.596784 83.181 -152.6599
679.485191 82.046 -166.3091
684.409020 81.762 173.2007
689.368530 81.728 148.2229
694.363979 81.765 124.2468
699.395626 82.113 102.9832
704.463736 82.489 79.5994
709.568570 82.206 54.8474
714.710396 81.305 42.1914
719.889483 81.288 61.0515
725.106099 82.466 59.2922
730.360516 83.500 45.5901
735.653010 84.672 39.7317
740.983855 86.265 32.1182
746.353329 87.557 15.8757
751.761713 88.016 -4.7988
757.209288 87.523 -25.0535
762.696339 86.200 -40.7427
768.223151 84.525 -47.1633
773.790013 83.607 -46.0120
779.397214 84.170 -44.9907
785.045047 85.010 -60.9077
790.733808 84.574 -91.4834
796.463791 82.640 -126.9497
802.235296 80.380 171.0493
808.048623 80.309 78.0364
813.904077 82.566 44.3518
819.801961 84.741 18.7185
825.742584 85.931 -7.0603
831.726255 86.439 -29.5200
837.753287 86.344 -53.8140
843.823992 85.197 -79.4004
849.938689 82.952 -98.1013
856.097695 80.425 -117.2002
862.301332 78.975 136.4709
868.549922 79.790 28.2329
874.843793 81.719 5.3960
881.183272 83.434 -12.9717
887.568689 84.137 -34.4766
894.000378 83.704 -50.6455
900.478673 83.119 -56.0518
907.003913 83.248 -60.5176
913.576437 83.555 -74.0312
920.196588 83.306 -91.7109
926.864712 82.566 -108.8945
933.581156 81.584 -131.4136
940.346270 80.233 -164.6099
947.160407 79.277 140.3682
954.023921 79.676 65.5854
960.937172 80.553 17.1094
967.900519 81.189 -14.3296
974.914325 81.246 -41.7656
981.978956 80.239 -62.7090
989.094780 78.947 -36.0288
996.262169 79.243 -18.9580
1003.481495 80.354 -30.4600
1010.753136 80.896 -44.9585
1018.077470 81.071 -49.4546
1025.454879 81.847 -48.6655
1032.885748 83.041 -56.1982
1040.370463 84.723 -61.7979
1047.909417 86.433 -79.5664
1055.503000 87.052 -111.9487
1063.151610 86.126 -151.6641
1070.855645 83.728 161.8691
1078.615506 80.402 18.4160
1086.431599 77.811 -34.3081
1094.304330 78.147 -46.8491
1102.234110 79.604 -61.7480
1110.221353 80.244 -74.7153
1118.266475 80.617 -74.9287
1126.369895 81.204 -89.0269
1134.532035 81.238 -107.5498
1142.753322 81.213 -113.2578
1151.034184 81.415 -133.2588
1159.375052 80.708 -168.2358
1167.776361 79.153 147.6553
1176.238550 77.543 73.4067
1184.762060 76.635 0.8652
1193.347334 77.207 -37.6108
1201.994821 77.677 -78.2773
1210.704971 77.079 -97.7896
1219.478238 77.282 13.3618
1228.315080 79.137 -11.0903
1237.215957 80.700 -38.3091
1246.181334 81.232 -64.7920
1255.211678 80.698 -89.1274
1264.307459 79.114 -106.6528
1273.469152 77.059 -113.2056
1282.697235 75.535 -114.0898
1291.992188 75.084 -112.5073
1301.354495 74.664 -127.6108
1310.784647 73.066 -143.6895
1320.283132 71.851 -104.6211
1329.850448 72.458 -62.0488
1339.487093 72.925 -77.8682
1349.193569 72.949 -92.9038
1358.970381 73.039 -102.6934
1368.818041 74.115 -105.2891
1378.737061 75.644 -128.9927
1388.727958 76.610 -174.0767
1398.791253 77.259 126.7896
1408.927471 77.923 69.1519
1419.137140 78.489 24.8228
1429.420793 78.391 -9.0156
1439.778965 77.605 -31.4575
1450.212197 76.876 -44.9150
1460.721033 77.241 -43.2437
1471.306019 78.818 -42.5718
1481.967709 79.638 -63.5698
1492.706658 78.937 -82.1650
1503.523426 77.857 -87.4087
1514.418576 77.299 -96.7686
1525.392678 76.492 -113.1411
1536.446302 75.179 -120.4258
1547.580025 74.530 -103.2144
1558.794428 75.746 -110.4297
1570.090095 77.911 -132.3076
1581.467615 79.990 -167.5186
1592.927581 81.387 143.2217
1604.470591 82.413 94.1548
1616.097246 82.949 51.9346
1627.808153 83.386 22.5918
1639.603922 84.047 -4.6387
1651.485168 83.720 -35.0073
1663.452510 82.000 -50.7847
1675.506573 80.599 -45.6162
1687.647984 81.087 -48.5293
1699.877377 82.409 -62.1538
1712.195390 83.128 -88.3330
1724.602663 82.501 -122.1191
1737.099845 80.712 -158.3193
1749.687587 79.190 154.8643
1762.366544 79.763 81.5288
1775.137379 81.683 50.7256
1788.000756 83.818 45.4004
1800.957346 84.954 15.3252
1814.007826 85.706 -1.7642
1827.152874 86.902 -19.1714
1840.393177 87.059 -47.6206
1853.729425 85.892 -71.5591
1867.162312 84.389 -86.8687
1880.692540 83.897 -47.5479
1894.320813 85.015 -42.8618
1908.047843 85.868 -65.4517
1921.874344 85.746 -84.4624
1935.801038 85.029 -104.9912
1949.828650 83.464 -124.3579
1963.957912 81.534 -140.0713
1978.189561 80.818 10.2964
1992.524338 82.677 -5.8433
2006.962991 85.686 -20.9062
2021.506272 87.921 -43.3652
2036.154940 88.686 -70.6265
2050.909758 88.154 -94.4258
2065.771495 86.870 -100.2358
2080.740927 86.151 -85.4844
2095.818833 86.476 -89.6138
2111.006001 87.464 -99.7373
2126.303220 88.545 -115.9897
2141.711290 89.196 -140.3950
2157.231013 88.699 -174.5625
2172.863198 87.408 145.4976
2188.608660 87.376 6.5601
2204.468221 88.145 -49.9873
2220.442706 88.238 -82.3169
2236.532950 88.005 -101.2500
2252.739789 88.168 -102.2720
2269.064070 89.290 -106.8169
2285.506644 90.690 -124.3018
2302.068367 91.219 -151.1426
2318.750104 90.229 -179.4248
2335.552723 88.476 159.4839
2352.477101 87.075 168.2207
2369.524119 86.686 -178.7998
2386.694668 86.471 -107.8965
2403.989641 85.803 -112.0376
2421.409941 85.600 -117.1577
2438.956476 86.523 -108.6362
2456.630160 87.252 -121.1772
2474.431915 87.220 -137.3257
2492.362668 86.857 -154.6060
2510.423356 85.951 -171.8140
2528.614918 84.404 177.5771
2546.938304 82.619 173.4907
2565.394469 80.876 170.7222
2583.984375 79.430 174.2627
2602.708991 78.560 -179.3247
2621.569293 78.940 -150.9668
2640.566265 81.101 -113.4502
2659.700897 83.231 -121.5244
2678.974186 84.430 -137.4595
2698.387137 84.897 -148.9438
2717.940763 84.816 -158.1597
2737.636082 84.491 -166.9204
2757.474121 83.949 178.7407
2777.455915 82.959 162.5479
2797.582506 81.382 147.4375
2817.854942 80.112 165.8066
2838.274281 80.594 -135.0156
2858.841586 81.871 -128.5728
2879.557931 83.273 -134.9805
2900.424394 84.958 -137.2490
2921.442065 86.349 -147.9331
2942.612039 86.731 -170.0381
2963.935418 86.199 166.0771
2985.413316 84.915 140.6172
3007.046852 83.350 139.4634
3028.837153 83.028 -151.4619
3050.785356 82.742 -165.1719
3072.892604 81.997 -161.4189
3095.160050 82.981 -152.1719
3117.588856 84.529 -153.4482
3140.180190 84.603 -169.2651
3162.935230 83.057 176.4805
3185.855163 81.142 168.8813
3208.941182 79.923 166.7485
3232.194493 79.276 165.2529
3255.616307 79.236 -175.3374
3279.207844 81.055 -132.1733
3302.970336 83.219 -136.7061
3326.905021 84.181 -159.6875
3351.013146 83.762 176.3789
3375.295969 82.321 160.6172
3399.754755 81.365 162.0640
3424.390779 82.029 162.2842
3449.205326 82.700 -138.2715
3474.199690 82.963 -138.0562
3499.375173 83.327 -139.5068
3524.733088 84.448 -146.6416
3550.274757 84.929 -167.7417
3576.001511 84.198 171.9253
3601.914692 82.748 158.2500
3628.015651 81.963 166.3062
3654.305748 82.480 -143.4160
3680.786354 82.957 -154.4507
3707.458849 83.298 -160.1455
3734.324624 84.634 -148.7490
3761.385080 86.082 -163.4678
3788.641627 85.997 172.1836
3816.095686 84.407 157.5933
3843.748688 82.543 163.8267
3871.602076 82.217 -174.5059
3899.657300 83.800 -152.6699
3927.915825 85.831 -155.9272
3956.379122 86.851 -177.5435
3985.048676 86.494 161.2402
4013.925981 85.212 160.1069
4043.012544 84.106 171.0435
4072.309879 83.536 164.0503
4101.819515 83.762 -162.8794
4131.542990 84.836 -159.8184
4161.481854 85.405 -177.4341
4191.637667 85.140 164.2109
4222.012001 83.940 147.8374
4252.606441 82.254 148.1069
4283.422580 81.997 -169.2891
4314.462026 83.616 -159.1885
4345.726396 84.742 -175.0679
4377.217321 85.049 171.8242
4408.936442 84.900 161.1665
4440.885413 83.946 152.6914
4473.065899 82.904 160.0239
4505.479579 83.273 -178.1533
4538.128141 84.653 -175.6338
4571.013288 85.407 168.2119
4604.136735 84.926 150.5938
4637.500207 83.143 145.5020
4671.105446 81.616 169.3506
4704.954201 82.023 178.0005
4739.048239 83.206 174.7627
4773.389336 83.683 163.0083
4807.979283 82.946 151.6387
4842.819883 81.707 154.9121
4877.912952 81.409 168.2842
4913.260320 82.061 170.9502
4948.863830 82.916 169.5005
4984.725337 83.573 165.7251
5020.846712 83.519 154.6162
5057.229836 82.543 146.5244
5093.876609 81.519 153.8975
5130.788938 82.068 172.9985
5167.968750 83.440 172.8916
5205.417982 83.764 159.4492
5243.138586 82.982 151.8550
5281.132530 81.979 149.0977
5319.401793 81.393 153.8413
5357.948371 81.601 166.4072
5396.774274 81.968 164.2832
5435.881525 82.011 157.2900
5475.272163 81.770 151.5669
5514.948243 81.438 152.9307
5554.911831 81.465 163.7568
5595.165012 82.105 166.9058
5635.709884 82.279 158.2759
5676.548561 81.922 158.0337
5717.683172 81.637 157.7500
5759.115861 81.513 172.2988
5800.848789 81.964 177.0747
5842.884130 82.669 170.2490
5885.224077 83.150 161.4575
5927.870837 83.025 159.9546
5970.826633 82.910 169.1577
6014.093704 82.945 162.0347
6057.674306 82.943 158.4653
6101.570711 83.126 155.6357
6145.785208 83.072 160.9722
6190.320101 83.204 173.7866
6235.177712 83.138 164.0713
6280.360380 82.578 154.0308
6325.870460 81.666 148.6978
6371.710325 81.166 175.3853
6417.882365 82.161 -171.8140
6464.388986 83.295 178.4961
6511.232613 83.299 168.0200
6558.415689 83.023 -178.2520
6605.940673 83.524 -177.5503
6653.810042 83.761 170.7451
6702.026292 83.424 165.8311
6750.591937 83.299 167.6816
6799.509509 83.794 179.2749
6848.781558 84.423 176.5361
6898.410653 84.298 165.5415
6948.399380 83.916 168.9741
6998.750346 84.290 -178.9580
7049.466176 84.998 178.6191
7100.549514 85.249 166.9941
7152.003023 84.825 163.6714
7203.829385 84.662 178.3472
7256.031302 84.885 175.9556
7308.611496 84.843 168.7642
7361.572708 84.461 163.5415
7414.917698 84.312 167.9121
7468.649249 84.698 167.7773
7522.770160 84.707 160.1431
7577.283253 84.451 163.0312
7632.191371 84.843 169.8135
7687.497376 85.389 164.3135
7743.204151 85.094 153.7432
7799.314600 84.222 154.8618
7855.831649 83.977 161.7725
7912.758244 84.180 158.8696
7970.097352 83.844 152.4341
8027.851962 83.250 159.9956
8086.025087 83.378 165.1611
8144.619758 83.393 159.1865
8203.639030 82.816 163.0190
8263.085980 82.898 174.0991
8322.963708 83.446 172.0298
8383.275334 83.507 168.5337
8444.024002 83.549 174.5435
8505.212881 83.917 176.2236
8566.845160 83.880 170.4395
8628.924051 83.634 173.7710
8691.452792 84.026 179.3774
8754.434642 84.569 175.8848
8817.872884 84.607 172.6182
8881.770826 84.679 174.9961
8946.131799 84.765 172.1138
9010.959157 84.658 170.9702
9076.256282 84.783 174.0835
9142.026576 85.207 173.6279
9208.273470 85.429 169.3545
9275.000415 85.312 166.7954
9342.210891 84.953 166.4316
9409.908403 84.691 166.9673
9478.096478 84.710 168.8359
9546.778672 84.963 168.4688
9615.958566 85.063 164.3535
9685.639765 84.901 161.8750
9755.825904 84.826 162.0073
9826.520640 84.819 161.2656
9897.727659 84.615 160.2500
9969.450674 84.136 159.2314
10041.693423 83.625 160.3501
10114.459673 83.374 163.3232
10187.753217 83.427 166.4307
10261.577877 83.640 171.1152
10335.937500 83.721 169.8545
10410.835964 83.613 169.2192
10486.277173 83.709 172.1260
10562.265060 84.126 173.5376
10638.803587 84.470 171.2520
10715.896743 84.522 167.3340
10793.548548 84.326 164.5034
10871.763050 84.200 165.2412
10950.544327 84.087 162.6758
11029.896485 83.657 159.5923
11109.823662 83.078 158.7729
11190.330024 82.599 160.2183
11271.419768 82.294 163.1768
11353.097122 81.966 164.9507
11435.366344 81.586 166.8481
11518.231722 81.412 169.9761
11601.697577 81.622 173.8467
11685.768261 81.914 175.4429
11770.448155 82.003 178.6611
11855.741674 82.105 178.9785
11941.653265 82.180 -179.8564
12028.187408 82.375 -178.9468
12115.348612 82.361 179.1899
12203.141422 82.332 -179.7324
12291.570415 82.290 178.0991
12380.640201 81.951 179.0361
12470.355424 81.705 -177.5054
12560.720760 81.630 -175.2686
12651.740920 81.825 -172.5547
12743.420650 82.143 -171.1519
12835.764729 82.600 -169.8188
12928.777972 82.843 -173.5186
13022.465227 82.838 -173.2422
13116.831378 82.847 -174.3770
13211.881345 82.799 -177.1997
13307.620084 82.650 178.9878
13404.052584 82.070 177.2451
13501.183875 81.478 -177.9673
13599.019019 81.154 -174.7402
13697.563116 81.064 -169.5146
13796.821305 81.325 -165.3750
13896.798760 82.055 -161.4531
13997.500692 82.529 -165.7993
14098.932352 82.605 -167.2964
14201.099028 82.612 -170.8999
14304.006046 82.470 -173.9697
14407.658770 81.922 -178.7622
14512.062604 81.196 -178.1050
14617.222992 80.689 -178.3887
14723.145416 80.251 -178.8467
14829.835397 79.798 -178.2227
14937.298497 79.601 -174.7954
15045.540320 79.429 -177.0391
15154.566507 79.027 -177.8013
15264.382743 78.653 -175.8921
15374.994752 78.432 -175.6035
15486.408302 78.064 -177.4712
15598.629201 77.634 -177.0151
15711.663298 77.268 -176.1289
15825.516487 76.822 -176.3125
15940.194703 76.378 -173.8770
16055.703925 76.173 -171.6846
16172.050174 76.012 -172.1699
16289.239516 75.714 -172.8726
16407.278061 75.368 -172.9956
16526.171961 75.061 -172.9810
16645.927415 74.724 -174.4619
16766.550667 74.161 -176.2256
16888.048005 73.177 -176.1963
17010.425762 71.985 -173.3486
17133.690320 71.039 -164.0229
17257.848103 70.941 -149.9292
17382.905584 71.406 -143.4814
17508.869284 71.805 -140.2544
17635.745768 72.225 -138.2334
17763.541652 72.600 -138.3906
17892.263597 72.899 -138.8643
18021.918315 73.102 -141.0850
18152.512564 72.932 -146.3784
18284.053153 72.354 -150.4922
18416.546939 71.564 -152.0146
18550.000830 70.527 -151.9858
18684.421783 69.512 -147.6177
18819.816805 68.792 -144.9185
18956.192956 68.126 -140.5767
19093.557344 67.614 -135.9395
19231.917131 67.124 -135.9609
19371.279531 66.514 -134.5859
19511.651807 65.778 -136.8564
19653.041280 64.664 -140.2407
19795.455318 63.373 -139.9536
19938.901348 62.441 -140.9146
