* Measurement data measured by REW V5.31.1
* Source: Scarlett 2i4 USB, MICROPHONE, R, volume: no control
* Format: 512k Log Swept Sine, 1 sweep at -18.0 dBFS with no timing reference
* Dated: May 7, 2024 3:44:36 PM
* REW Settings:
*  C-weighting compensation: Off
*  Target level: 75.0 dB
* Note: ; 
* Measurement: front-l12-r1-p1-l
* Smoothing: 1/48 octave
* Frequency Step: 96 ppo
* Start Frequency: 10.093689 Hz
*
* Freq(Hz) SPL(dB) Phase(degrees)
10.093689 40.840 -25.3176
10.166832 40.914 -26.0516
10.240505 41.005 -27.0453
10.314712 41.096 -28.2419
10.389457 41.175 -29.6041
10.464743 41.192 -31.1535
10.540575 41.117 -33.1013
10.616956 40.959 -35.3661
10.693891 40.688 -37.8289
10.771383 40.265 -40.3979
10.849437 39.673 -43.4871
10.928057 38.926 -47.3773
11.007246 38.046 -51.9803
11.087009 37.029 -57.2854
11.167350 35.731 -64.2619
11.248273 34.089 -76.1155
11.329783 32.572 -98.2296
11.411883 31.947 -139.4251
11.494578 32.906 176.6781
11.577873 35.199 153.2702
11.661771 37.954 141.0362
11.746277 40.472 132.7415
11.831395 42.447 125.9127
11.917130 44.124 120.1728
12.003487 45.609 115.1307
12.090469 46.950 110.3965
12.178081 48.155 105.6835
12.266329 49.208 101.0550
12.355216 50.141 96.5893
12.444747 50.993 92.2294
12.534926 51.769 87.7631
12.625760 52.457 83.2142
12.717251 53.071 78.7457
12.809406 53.623 74.3805
12.902228 54.109 69.8198
12.995723 54.529 65.1725
13.089895 54.889 60.6302
13.184750 55.192 56.1525
13.280292 55.435 51.4314
13.376526 55.619 46.6904
13.473458 55.747 42.1403
13.571093 55.817 37.4738
13.669434 55.829 32.6475
13.768489 55.782 27.9288
13.868261 55.675 23.3693
13.968756 55.507 18.6115
14.069979 55.277 13.8606
14.171936 54.982 9.3781
14.274632 54.622 4.8649
14.378072 54.193 0.3342
14.482261 53.693 -3.9327
14.587206 53.119 -7.9438
14.692910 52.472 -11.8246
14.799381 51.753 -15.4020
14.906624 50.953 -18.3949
15.014643 50.083 -20.8043
15.123446 49.179 -22.6382
15.233036 48.247 -23.5271
15.343421 47.304 -23.0511
15.454606 46.478 -21.6261
15.566596 45.863 -19.3919
15.679398 45.453 -16.0002
15.793018 45.280 -12.7821
15.907460 45.389 -10.6058
16.022732 45.738 -9.2523
16.138840 46.185 -9.2241
16.255788 46.658 -10.6876
16.373585 47.160 -13.2006
16.492234 47.630 -16.3954
16.611744 48.043 -20.4063
16.732119 48.405 -24.9486
16.853367 48.707 -29.5068
16.975494 48.948 -34.4072
17.098505 49.128 -39.3528
17.222408 49.248 -43.9066
17.347209 49.308 -48.4431
17.472914 49.313 -52.5930
17.599530 49.266 -56.0924
17.727063 49.173 -59.1661
17.855521 49.061 -61.4978
17.984909 48.933 -62.9510
18.115235 48.825 -63.6494
18.246506 48.786 -63.5775
18.378727 48.822 -62.6488
18.511907 48.966 -61.4192
18.646052 49.240 -59.9784
18.781169 49.614 -58.5569
18.917265 50.051 -57.6750
19.054347 50.539 -57.1874
19.192423 51.018 -57.1637
19.331499 51.460 -57.6793
19.471583 51.848 -58.4510
19.612682 52.154 -59.3049
19.754804 52.381 -60.2737
19.897956 52.530 -60.8461
20.042144 52.604 -61.1008
20.187378 52.646 -60.7573
20.333664 52.680 -59.5707
20.481010 52.757 -57.7042
20.629424 52.952 -55.2197
20.778913 53.275 -52.3097
20.929486 53.747 -49.7955
21.081150 54.358 -47.6574
21.233912 55.031 -46.5458
21.387782 55.730 -46.3951
21.542767 56.397 -47.0825
21.698874 56.987 -48.6422
21.856113 57.486 -50.6565
22.014492 57.870 -53.0190
22.174018 58.143 -55.5259
22.334700 58.307 -57.7773
22.496546 58.377 -59.8213
22.659566 58.387 -61.1450
22.823766 58.368 -61.8606
22.989157 58.394 -61.7828
23.155745 58.498 -61.0267
23.323542 58.744 -60.1150
23.492554 59.128 -59.1660
23.662790 59.620 -58.9813
23.834261 60.183 -59.4436
24.006973 60.736 -60.8575
24.180938 61.247 -62.9473
24.356163 61.667 -65.4837
24.532658 61.991 -68.2614
24.710431 62.212 -70.7805
24.889493 62.361 -72.9318
25.069853 62.478 -74.1909
25.251519 62.642 -74.6925
25.434502 62.930 -74.2144
25.618811 63.405 -73.6090
25.804456 64.093 -73.0513
25.991445 64.926 -73.6877
26.179790 65.849 -75.3837
26.369500 66.751 -78.5802
26.560584 67.585 -82.8074
26.753053 68.293 -88.0421
26.946917 68.854 -93.7552
27.142185 69.251 -99.9824
27.338869 69.479 -106.0474
27.536977 69.536 -112.0986
27.736522 69.434 -117.3977
27.937512 69.199 -121.9722
28.139959 68.870 -125.2417
28.343872 68.541 -127.1782
28.549264 68.292 -127.5710
28.756143 68.247 -127.0913
28.964522 68.428 -126.4045
29.174411 68.819 -126.3594
29.385821 69.296 -127.6090
29.598763 69.774 -130.0560
29.813248 70.155 -133.6246
30.029287 70.395 -137.7119
30.246891 70.475 -142.1699
30.466073 70.395 -146.3162
30.686842 70.186 -149.9174
30.909212 69.884 -152.6457
31.133193 69.572 -154.2560
31.358797 69.320 -154.9519
31.586035 69.187 -154.9117
31.814921 69.193 -154.8943
32.045465 69.294 -155.2223
32.277680 69.435 -156.1226
32.511577 69.546 -157.5018
32.747169 69.598 -158.9649
32.984469 69.612 -160.2566
33.223488 69.612 -160.9941
33.464239 69.669 -161.1842
33.706735 69.832 -161.0864
33.950987 70.128 -161.0747
34.197010 70.522 -161.7580
34.444816 70.949 -163.3136
34.694417 71.349 -165.7023
34.945827 71.671 -168.7773
35.199059 71.889 -172.1420
35.454126 72.008 -175.5046
35.711041 72.046 -178.6650
35.969818 72.034 178.5497
36.230470 72.005 176.1420
36.493011 71.980 173.9648
36.757455 71.962 171.8765
37.023814 71.938 169.7452
37.292104 71.883 167.5183
37.562338 71.773 165.3162
37.834530 71.599 163.3260
38.108695 71.366 161.7496
38.384846 71.097 160.7850
38.662999 70.825 160.5607
38.943167 70.593 161.0414
39.225365 70.430 162.0637
39.509608 70.350 163.4086
39.795911 70.349 164.8690
40.084289 70.409 166.3253
40.374756 70.511 167.7967
40.667328 70.647 169.4632
40.962020 70.840 171.6133
41.258848 71.151 174.4653
41.557827 71.667 177.9167
41.858972 72.453 -178.6513
42.162299 73.498 -176.2147
42.467824 74.714 -175.5999
42.775564 75.974 -177.1158
43.085533 77.166 179.4027
43.397749 78.224 174.3599
43.712227 79.111 168.2161
44.028983 79.820 161.3920
44.348036 80.354 154.2310
44.669400 80.725 147.0019
44.993093 80.952 139.9109
45.319131 81.054 133.1142
45.647532 81.050 126.7336
45.978313 80.962 120.8683
46.311491 80.815 115.5975
46.647083 80.637 110.9642
46.985107 80.460 106.9433
47.325581 80.313 103.4138
47.668521 80.213 100.1738
48.013947 80.157 97.0196
48.361876 80.128 93.8456
48.712326 80.110 90.6927
49.065315 80.105 87.6957
49.420863 80.137 84.9534
49.778987 80.241 82.3983
50.139706 80.444 79.7711
50.503039 80.742 76.7509
50.869005 81.111 73.1179
51.237623 81.527 68.8008
51.608912 81.981 63.7667
51.982891 82.473 57.8715
52.359580 82.987 50.8267
52.739000 83.477 42.3266
53.121168 83.872 32.2221
53.506106 84.093 20.6000
53.893833 84.072 7.7081
54.284370 83.757 -6.0814
54.677737 83.113 -20.2915
55.073955 82.122 -34.3781
55.473043 80.787 -47.7496
55.875024 79.142 -59.8309
56.279917 77.257 -70.1785
56.687745 75.248 -78.7974
57.098527 73.244 -86.5298
57.512287 71.311 -94.8519
57.929045 69.426 -105.1542
58.348822 67.542 -118.5602
58.771642 65.742 -136.4523
59.197525 64.412 -160.3586
59.626495 64.116 171.0969
60.058573 64.955 143.9269
60.493782 66.379 121.6641
60.932145 67.855 103.4248
61.373685 69.144 87.6212
61.818424 70.170 73.3782
62.266386 70.934 60.3595
62.717593 71.463 48.4039
63.172071 71.804 37.5469
63.629842 72.021 27.8817
64.090930 72.189 19.3790
64.555359 72.386 11.8713
65.023154 72.670 4.9922
65.494339 73.065 -1.7003
65.968938 73.557 -8.6211
66.446976 74.112 -15.9744
66.928478 74.694 -23.7776
67.413469 75.281 -31.9211
67.901975 75.868 -40.2637
68.394021 76.461 -48.7012
68.889632 77.071 -57.2043
69.388835 77.705 -65.7950
69.891655 78.368 -74.5347
70.398118 79.053 -83.5360
70.908252 79.744 -92.9211
71.422083 80.412 -102.7743
71.939636 81.021 -113.0789
72.460941 81.542 -123.6906
72.986023 81.960 -134.4326
73.514909 82.272 -145.0793
74.047629 82.490 -155.4460
74.584208 82.640 -165.4089
75.124676 82.760 -175.0142
75.669061 82.871 175.4419
76.217390 82.955 165.5155
76.769692 82.955 154.9131
77.325997 82.796 143.6069
77.886333 82.421 131.8348
78.450730 81.790 119.7316
79.019216 80.857 107.2247
79.591822 79.531 94.1494
80.168577 77.669 80.4247
80.749512 75.159 66.1307
81.334656 72.463 50.5823
81.924040 72.047 -134.5743
82.517696 74.523 -149.4775
83.115653 77.316 -161.3220
83.717943 79.575 -173.0125
84.324598 81.275 174.9268
84.935649 82.481 162.7385
85.551128 83.269 151.0085
86.171066 83.737 140.3121
86.795497 83.996 130.9800
87.424453 84.152 123.0188
88.057967 84.291 116.1499
88.696071 84.466 109.9028
89.338800 84.688 103.7975
89.986185 84.948 97.5698
90.638262 85.244 91.1230
91.295065 85.585 84.1592
91.956626 85.936 76.0200
92.622982 86.192 66.1541
93.294166 86.210 54.6946
93.970214 85.886 42.5040
94.651161 85.190 30.8094
95.337042 84.183 20.7286
96.027894 82.990 12.7792
96.723752 81.746 6.6686
97.424652 80.533 1.7615
98.130631 79.381 -2.3124
98.841726 78.307 -5.8102
99.557974 77.314 -9.2965
100.279412 76.346 -13.2692
101.006078 75.321 -17.5214
101.738010 74.204 -21.4395
102.475245 73.016 -24.7457
103.217823 71.800 -27.4739
103.965782 70.604 -29.7574
104.719161 69.475 -32.2463
105.477999 68.401 -35.5648
106.242336 67.378 -39.3970
107.012212 66.544 -43.6355
107.787666 66.146 -49.4906
108.568740 66.384 -58.8109
109.355474 67.218 -73.0931
110.147909 68.347 -91.8060
110.946086 69.493 -112.0393
111.750047 70.585 -130.5800
112.559834 71.689 -145.9032
113.375489 72.845 -158.4756
114.197055 73.983 -169.6821
115.024574 74.996 179.8129
115.858089 75.860 170.3794
116.697645 76.637 162.2949
117.543284 77.366 154.8674
118.395051 77.980 147.2847
119.252990 78.404 139.9364
120.117147 78.678 134.0498
120.987565 78.964 130.4027
121.864291 79.440 128.3640
122.747370 80.149 126.1648
123.636848 80.978 122.4482
124.532771 81.782 117.0535
125.435187 82.462 110.2925
126.344142 82.961 102.7496
127.259684 83.293 95.3271
128.181860 83.544 88.6643
129.110718 83.813 82.4910
130.046308 84.119 75.8840
130.988677 84.388 68.1245
131.937875 84.519 59.1772
132.893951 84.449 49.6417
133.856956 84.184 40.0563
134.826938 83.752 30.2983
135.803950 83.137 19.9882
136.788041 82.284 8.8438
137.779264 81.099 -3.3248
138.777669 79.469 -16.5057
139.783309 77.299 -31.1714
140.796237 74.610 -50.2874
141.816504 72.077 -97.7344
142.844165 71.670 146.0388
143.879273 73.322 119.3611
144.921881 75.131 105.6411
145.972045 76.545 96.1521
147.029819 77.611 88.7361
148.095257 78.395 81.9885
149.168417 78.914 75.5237
150.249353 79.208 69.7461
151.338121 79.393 65.5491
152.434780 79.674 63.2837
153.539385 80.146 60.7976
154.651995 80.598 55.2585
155.772667 80.703 47.2278
156.901460 80.338 40.1812
158.038432 79.699 37.1755
159.183644 79.131 37.7454
160.337154 78.839 39.3027
161.499023 78.854 40.9319
162.669312 79.198 42.8101
163.848081 79.801 42.7139
165.035392 80.350 38.4211
166.231306 80.546 31.5923
167.435887 80.328 25.3618
168.649196 79.827 21.1514
169.871298 79.200 19.2207
171.102255 78.632 19.7610
172.342133 78.257 21.2451
173.590995 78.067 22.5574
174.848907 78.014 23.7544
176.115934 78.162 26.4001
177.392143 78.651 29.6565
178.677599 79.364 29.8438
179.972371 80.023 26.7434
181.276525 80.487 22.2090
182.590129 80.781 17.6340
183.913252 81.046 14.0381
185.245964 81.427 10.5146
186.588332 81.826 3.9644
187.940428 81.949 -6.1594
189.302322 81.596 -17.8042
190.674085 80.704 -29.4917
192.055788 79.219 -40.2021
193.447503 77.089 -47.3940
194.849303 74.428 -47.1411
196.261262 72.003 -29.5129
197.683452 71.825 17.9402
199.115948 73.697 33.4192
200.558824 75.340 26.3215
202.012156 75.973 14.4851
203.476019 75.643 5.1626
204.950490 74.851 4.3918
206.435646 74.753 17.0261
207.931564 76.195 33.3796
209.438322 78.217 35.0911
210.955998 79.679 24.4165
212.484672 80.164 9.1851
214.024424 79.670 -4.2493
215.575333 78.597 -9.1228
217.137481 78.011 -0.7705
218.710948 78.779 8.3025
220.295818 80.121 4.6582
221.892172 80.999 -8.4658
223.500094 80.971 -25.6042
225.119668 79.954 -41.6487
226.750978 78.094 -52.8630
228.394109 75.620 -59.3147
230.049147 72.797 -57.9700
231.716178 70.814 -16.4917
233.395289 71.464 24.5693
235.086567 73.163 24.5857
236.790102 74.224 16.4106
238.505980 74.548 10.6921
240.234293 74.903 15.7830
241.975130 76.040 25.5564
243.728581 77.557 26.2698
245.494739 78.773 20.0652
247.273695 79.479 11.9314
249.065542 79.904 6.8965
250.870374 80.486 5.5981
252.688284 81.295 2.3933
254.519367 82.026 -4.6704
256.363720 82.476 -13.5203
258.221437 82.590 -23.0596
260.092616 82.315 -32.8464
261.977354 81.670 -40.5500
263.875750 81.032 -41.6511
265.787903 81.098 -37.3296
267.713911 81.836 -39.3306
269.653877 82.463 -49.6978
271.607900 82.541 -62.9629
273.576083 82.086 -75.5747
275.558528 81.199 -88.0208
277.555338 79.828 -100.0845
279.566619 78.001 -107.8914
281.592474 76.054 -112.9021
283.633009 74.243 -124.6919
285.688331 72.650 -149.5559
287.758546 72.251 82.8240
289.843763 73.667 18.1057
291.944090 75.533 -4.5535
294.059638 77.002 -21.4795
296.190515 77.903 -36.9775
298.336833 78.149 -52.5645
300.498705 77.634 -67.6155
302.676243 76.381 -78.0291
304.869559 75.147 -71.1265
307.078770 75.690 -45.5581
309.303989 77.825 -39.2434
311.545334 80.023 -46.7300
313.802919 81.735 -59.9412
316.076865 82.870 -76.1707
318.367288 83.434 -93.7163
320.674309 83.464 -111.1616
322.998047 83.070 -126.7131
325.338624 82.492 -139.2104
327.696162 82.048 -149.0688
330.070783 81.920 -159.0000
332.462612 81.911 -172.1575
334.871773 81.624 171.7783
337.298392 80.868 156.7739
339.742595 79.958 148.2292
342.204510 79.620 144.8557
344.684265 79.945 136.4490
347.181989 80.236 121.9651
349.697813 80.082 106.2788
352.231868 79.530 92.9709
354.784285 78.906 83.9531
357.355198 78.539 76.6089
359.944741 78.316 66.4316
362.553049 77.916 55.3179
365.180258 77.354 46.7563
367.826505 76.787 38.7546
370.491927 75.979 27.0935
373.176665 74.541 17.4199
375.880856 72.989 26.8647
378.604644 73.099 53.7556
381.348169 74.900 60.2168
384.111575 76.923 55.2969
386.895006 78.552 44.6628
389.698607 79.605 30.1912
392.522524 80.122 15.0981
395.366904 80.185 -0.3711
398.231895 79.666 -17.0930
401.117648 78.417 -31.1504
404.024312 76.748 -34.0073
406.952038 75.566 -28.9622
409.900981 75.230 -30.3691
412.871292 75.373 -33.5610
415.863128 75.694 -39.9436
418.876643 75.752 -51.5369
421.911996 75.281 -63.9038
424.969344 74.346 -74.6211
428.048847 73.188 -82.0205
431.150666 72.612 -78.7939
434.274961 73.572 -72.4263
437.421897 75.221 -82.7673
440.591636 76.455 -103.4871
443.784345 77.067 -127.1870
447.000189 77.251 -150.6245
450.239337 77.322 -172.3025
453.501956 77.538 167.1072
456.788219 77.778 144.9551
460.098294 77.694 121.8936
463.432356 77.186 101.4841
466.790578 76.510 85.3123
470.173135 75.775 69.0627
473.580203 74.627 51.5378
477.011961 73.072 41.6970
480.468586 72.636 71.4646
483.950259 74.142 90.1516
487.457163 75.581 74.3657
490.989478 76.090 56.3010
494.547390 76.106 45.3811
498.131084 76.283 38.6631
501.740748 76.572 27.6853
505.376568 76.610 13.8853
509.038735 76.296 -0.8406
512.727439 75.678 -17.3599
516.442874 74.719 -38.5120
520.185232 73.647 -66.8337
523.954708 73.306 -116.6240
527.751500 74.229 169.6406
531.575805 75.496 117.5544
535.427822 76.184 83.3958
539.307753 76.432 61.0034
543.215800 76.860 47.2114
547.152165 77.872 36.7029
551.117055 78.942 19.1436
555.110677 79.097 -7.8564
559.133237 78.005 -36.1216
563.184947 76.332 -64.9333
567.266018 75.398 -112.0598
571.376661 75.823 167.3738
575.517092 76.729 107.6619
579.687526 77.313 70.6990
583.888181 77.517 45.2090
588.119275 77.525 25.1440
592.381030 77.280 5.2529
596.673667 76.476 -16.8472
600.997410 74.789 -40.1318
605.352485 72.004 -58.4609
609.739119 68.346 -31.8955
614.157540 65.365 24.9106
618.607979 65.386 39.3643
623.090667 67.911 51.5974
627.605839 71.178 60.1460
632.153730 73.753 42.5508
636.734576 74.863 8.5806
641.348617 74.236 -35.6465
645.996094 72.243 -99.1484
650.677248 71.193 179.0181
655.392323 73.318 150.1997
660.141566 76.036 128.0747
664.925224 77.905 105.2222
669.743546 78.984 85.5625
674.596784 79.675 70.2666
679.485191 80.050 54.6362
684.409020 79.928 39.2686
689.368530 79.460 26.8462
694.363979 78.662 11.5127
699.395626 77.119 -5.8179
704.463736 75.052 -5.3423
709.568570 74.261 62.1113
714.710396 75.080 60.5913
719.889483 75.994 53.5220
725.106099 77.000 52.6592
730.360516 77.850 45.0884
735.653010 78.103 34.5054
740.983855 77.767 25.1348
746.353329 77.309 22.0552
751.761713 77.880 49.6660
757.209288 79.506 59.6592
762.696339 80.975 50.4590
768.223151 82.306 44.3359
773.790013 83.352 32.8994
779.397214 83.597 17.3599
785.045047 83.109 9.0552
790.733808 82.903 12.2363
796.463791 83.384 9.2778
802.235296 84.085 3.8096
808.048623 84.814 -4.1152
813.904077 85.380 -14.7451
819.801961 85.811 -26.5278
825.742584 86.065 -41.0474
831.726255 85.896 -59.6763
837.753287 85.033 -80.8052
843.823992 83.358 -102.0381
849.938689 81.077 -118.1787
856.097695 79.522 -136.8237
862.301332 80.274 -174.0664
868.549922 82.644 133.2471
874.843793 84.761 83.7520
881.183272 85.881 42.9917
887.568689 86.150 11.0620
894.000378 86.025 -14.2510
900.478673 85.704 -37.3066
907.003913 85.057 -61.7881
913.576437 83.747 -89.1763
920.196588 81.620 -119.9463
926.864712 78.856 -164.4121
933.581156 76.507 99.3506
940.346270 76.625 47.8604
947.160407 78.541 26.8901
954.023921 80.039 5.2617
960.937172 80.393 -15.5474
967.900519 80.202 -26.2295
974.914325 80.307 -34.6997
981.978956 79.954 -54.1094
989.094780 78.477 -68.7783
996.262169 77.749 -19.3389
1003.481495 79.849 4.4189
1010.753136 82.328 -10.9136
1018.077470 83.579 -35.7114
1025.454879 83.255 -61.2827
1032.885748 81.618 -78.5825
1040.370463 79.478 -81.4141
1047.909417 78.149 -77.0498
1055.503000 78.023 -79.3896
1063.151610 78.656 -72.0811
1070.855645 79.210 -83.1260
1078.615506 78.316 -105.3066
1086.431599 76.428 -82.5591
1094.304330 75.877 -53.7036
1102.234110 77.269 -57.3501
1110.221353 79.023 -69.6279
1118.266475 80.041 -90.0786
1126.369895 80.572 -107.7021
1134.532035 81.375 -125.4102
1142.753322 81.658 -156.4653
1151.034184 80.547 168.8643
1159.375052 78.783 142.3574
1167.776361 78.288 117.3755
1176.238550 78.701 81.7056
1184.762060 78.285 46.1235
1193.347334 77.287 23.1328
1201.994821 76.618 3.7568
1210.704971 76.152 -14.7778
1219.478238 75.591 -30.7607
1228.315080 74.742 -43.1128
1237.215957 73.654 -52.2021
1246.181334 72.282 -68.5879
1255.211678 71.695 -79.8047
1264.307459 74.035 60.1680
1273.469152 77.152 41.3179
1282.697235 79.079 13.9834
1291.992188 79.964 -9.3584
1301.354495 80.554 -26.2070
1310.784647 81.141 -42.7275
1320.283132 81.640 -60.1562
1329.850448 81.844 -83.7007
1339.487093 81.094 -114.6377
1349.193569 79.049 -148.8433
1358.970381 75.871 174.5396
1368.818041 72.846 94.6299
1378.737061 72.726 54.1201
1388.727958 74.921 36.9917
1398.791253 77.059 10.4766
1408.927471 78.312 -15.7329
1419.137140 78.808 -33.7900
1429.420793 79.427 -47.8926
1439.778965 79.397 -73.4351
1450.212197 78.002 -91.7510
1460.721033 77.034 -30.0479
1471.306019 77.808 -19.3057
1481.967709 78.627 -39.9116
1492.706658 79.006 -56.2319
1503.523426 79.201 -64.3809
1514.418576 79.412 -72.5020
1525.392678 79.155 -88.8882
1536.446302 79.000 -42.1562
1547.580025 80.423 -23.8076
1558.794428 82.410 -38.5615
1570.090095 83.536 -59.4785
1581.467615 83.825 -77.6567
1592.927581 83.639 -91.2295
1604.470591 83.608 -98.9517
1616.097246 83.939 -109.0811
1627.808153 84.264 -122.5820
1639.603922 84.556 -138.0059
1651.485168 84.310 -161.6104
1663.452510 82.778 172.7759
1675.506573 80.663 149.2744
1687.647984 79.967 58.8989
1699.877377 80.713 -62.7783
1712.195390 81.604 -94.2622
1724.602663 82.542 -115.5425
1737.099845 83.009 -138.2607
1749.687587 82.393 -159.6089
1762.366544 80.998 -174.6738
1775.137379 79.387 172.6343
1788.000756 77.731 166.8945
1800.957346 76.624 -160.3257
1814.007826 77.479 -133.7021
1827.152874 79.139 -137.2358
1840.393177 80.220 -149.8403
1853.729425 81.480 -156.6108
1867.162312 82.936 -167.4717
1880.692540 83.496 171.5713
1894.320813 82.744 152.6812
1908.047843 81.706 146.6792
1921.874344 81.878 146.0400
1935.801038 82.375 127.7246
1949.828650 81.280 100.7524
1963.957912 78.575 105.0552
1978.189561 76.626 161.7607
1992.524338 77.157 158.9365
2006.962991 78.536 156.0605
2021.506272 80.187 151.5957
2036.154940 81.440 131.5166
2050.909758 82.202 109.9443
2065.771495 82.368 80.1064
2080.740927 81.222 38.0342
2095.818833 79.333 -29.7119
2111.006001 79.040 -123.9609
2126.303220 80.297 -167.9751
2141.711290 81.401 162.1172
2157.231013 81.575 135.7832
2172.863198 81.010 115.6309
2188.608660 80.082 97.5864
2204.468221 78.708 84.1499
2220.442706 77.371 107.4404
2236.532950 77.761 120.0537
2252.739789 79.290 110.1533
2269.064070 80.722 94.6514
2285.506644 81.452 72.7944
2302.068367 81.351 48.8599
2318.750104 80.878 19.8071
2335.552723 80.314 -21.5688
2352.477101 79.308 -80.8188
2369.524119 78.932 -143.4238
2386.694668 80.424 178.6729
2403.989641 81.615 138.8354
2421.409941 81.142 98.8960
2438.956476 79.237 69.6064
2456.630160 76.678 58.2095
2474.431915 75.047 93.0186
2492.362668 75.721 113.9883
2510.423356 77.724 128.9526
2528.614918 79.765 123.9346
2546.938304 80.947 95.3994
2565.394469 81.323 66.4253
2583.984375 81.347 34.7349
2602.708991 80.616 -7.5781
2621.569293 78.994 -62.0122
2640.566265 77.925 -131.1094
2659.700897 78.216 173.9268
2678.974186 78.292 136.6987
2698.387137 77.856 108.9111
2717.940763 76.487 92.2329
2737.636082 75.266 109.2393
2757.474121 75.833 113.9634
2777.455915 76.678 98.4165
2797.582506 76.717 78.8047
2817.854942 75.683 64.5264
2838.274281 74.485 65.0254
2858.841586 74.275 73.7998
2879.557931 74.853 61.8711
2900.424394 75.272 33.3530
2921.442065 76.312 179.8169
2942.612039 78.227 147.5947
2963.935418 79.052 113.6465
2985.413316 78.451 83.8994
3007.046852 76.693 72.9800
3028.837153 75.670 109.7158
3050.785356 76.975 115.7896
3072.892604 78.549 100.0381
3095.160050 78.967 75.5786
3117.588856 78.277 52.9717
3140.180190 77.448 40.0024
3162.935230 76.876 86.6826
3185.855163 76.305 78.0400
3208.941182 75.166 82.2959
3232.194493 74.358 117.0591
3255.616307 74.976 112.6069
3279.207844 76.153 106.0923
3302.970336 77.526 103.9810
3326.905021 78.661 91.6357
3351.013146 78.859 74.8931
3375.295969 78.373 61.9551
3399.754755 77.640 44.3467
3424.390779 77.047 58.4048
3449.205326 77.455 120.9927
3474.199690 77.803 96.7598
3499.375173 77.169 75.1138
3524.733088 76.276 72.9731
3550.274757 76.937 104.6191
3576.001511 78.417 100.4297
3601.914692 78.825 79.6143
3628.015651 78.098 66.6631
3654.305748 77.193 66.5405
3680.786354 76.677 69.1807
3707.458849 76.984 77.6025
3734.324624 77.024 69.4814
3761.385080 75.999 71.8320
3788.641627 75.681 87.0547
3816.095686 76.655 89.5508
3843.748688 78.259 105.0488
3871.602076 79.200 93.3203
3899.657300 78.906 76.1943
3927.915825 78.202 67.4448
3956.379122 78.097 69.6821
3985.048676 78.510 77.9004
4013.925981 78.154 69.5776
4043.012544 77.224 67.7168
4072.309879 77.183 76.2451
4101.819515 78.065 75.9004
4131.542990 78.780 72.7021
4161.481854 78.923 66.3457
4191.637667 78.706 59.6602
4222.012001 78.610 54.6714
4252.606441 78.901 52.1699
4283.422580 79.017 43.5420
4314.462026 78.218 36.6602
4345.726396 77.423 50.6094
4377.217321 77.753 60.6230
4408.936442 78.175 57.5825
4440.885413 77.708 47.2920
4473.065899 76.865 50.8374
4505.479579 76.545 48.8608
4538.128141 76.163 44.9502
4571.013288 75.781 47.6831
4604.136735 75.699 48.1113
4637.500207 75.599 49.2568
4671.105446 75.672 64.7690
4704.954201 75.835 63.2109
4739.048239 75.688 59.3252
4773.389336 76.239 62.1230
4807.979283 77.121 54.3242
4842.819883 76.905 39.1104
4877.912952 75.895 51.7681
4913.260320 75.935 71.0728
4948.863830 76.654 66.7451
4984.725337 77.151 59.0796
5020.846712 77.665 54.7974
5057.229836 77.841 43.7373
5093.876609 76.938 35.5220
5130.788938 75.805 40.4448
5167.968750 75.623 46.3467
5205.417982 75.900 43.6387
5243.138586 75.906 42.2524
5281.132530 76.152 53.3833
5319.401793 76.894 49.5801
5357.948371 76.813 36.7881
5396.774274 75.888 29.6284
5435.881525 75.290 38.8989
5475.272163 75.696 49.7710
5514.948243 76.233 53.4424
5554.911831 76.898 53.1089
5595.165012 77.114 39.7983
5635.709884 76.333 30.7617
5676.548561 75.688 35.4668
5717.683172 75.725 37.1880
5759.115861 75.717 34.1953
5800.848789 75.475 49.8804
5842.884130 75.416 47.7896
5885.224077 75.068 37.9976
5927.870837 74.625 38.2134
5970.826633 74.554 42.1909
6014.093704 74.638 48.6470
6057.674306 75.222 52.1465
6101.570711 76.160 48.8862
6145.785208 76.777 39.3789
6190.320101 76.655 32.3408
6235.177712 76.312 30.7583
6280.360380 75.808 23.6221
6325.870460 75.181 28.3306
6371.710325 75.080 40.3481
6417.882365 75.185 34.7402
6464.388986 74.861 28.8564
6511.232613 74.301 26.5137
6558.415689 73.676 28.7529
6605.940673 73.164 40.6147
6653.810042 73.287 45.3745
6702.026292 73.674 47.1963
6750.591937 74.227 50.1597
6799.509509 74.842 44.6826
6848.781558 75.263 42.5049
6898.410653 75.981 50.5078
6948.399380 76.729 44.1548
6998.750346 77.204 37.9771
7049.466176 77.525 28.4551
7100.549514 76.897 16.4146
7152.003023 75.554 24.3257
7203.829385 74.736 29.7319
7256.031302 74.623 34.9561
7308.611496 75.033 37.2446
7361.572708 75.102 29.7915
7414.917698 74.943 33.5112
7468.649249 75.368 41.4731
7522.770160 76.155 44.0322
7577.283253 76.874 36.1196
7632.191371 76.538 24.1738
7687.497376 75.764 27.7383
7743.204151 75.852 36.3662
7799.314600 76.591 38.7554
7855.831649 77.120 32.7339
7912.758244 76.883 24.0977
7970.097352 76.514 24.8359
8027.851962 76.731 31.9409
8086.025087 77.569 36.2334
8144.619758 77.969 24.5449
8203.639030 77.283 15.3589
8263.085980 76.291 16.1455
8322.963708 76.175 27.0718
8383.275334 76.771 28.3638
8444.024002 76.916 19.7656
8505.212881 76.514 14.8857
8566.845160 76.141 18.8682
8628.924051 76.633 26.3159
8691.452792 77.260 19.8799
8754.434642 77.109 11.9028
8817.872884 76.670 13.7651
8881.770826 76.951 24.1987
8946.131799 77.628 21.6870
9010.959157 77.751 13.5137
9076.256282 77.285 7.6055
9142.026576 76.921 11.2061
9208.273470 77.285 13.9429
9275.000415 77.855 10.0674
9342.210891 78.038 3.6670
9409.908403 77.873 1.2651
9478.096478 77.791 -0.9849
9546.778672 77.760 -5.6416
9615.958566 77.497 -13.3203
9685.639765 76.929 -15.2441
9755.825904 76.576 -11.3716
9826.520640 76.461 -15.4287
9897.727659 75.857 -23.6255
9969.450674 74.923 -22.4111
10041.693423 74.550 -14.7559
10114.459673 74.422 -14.0898
10187.753217 73.967 -18.0068
10261.577877 73.172 -15.7905
10335.937500 72.695 -8.9502
10410.835964 72.526 -12.0298
10486.277173 72.118 -13.2192
10562.265060 72.251 4.8320
10638.803587 73.036 13.8794
10715.896743 73.507 9.5044
10793.548548 73.900 9.2036
10871.763050 74.591 11.4844
10950.544327 75.056 3.9600
11029.896485 74.844 -3.6606
11109.823662 74.635 1.5625
11190.330024 74.883 1.4600
11271.419768 74.677 -7.1064
11353.097122 74.107 -4.2993
11435.366344 74.147 2.5215
11518.231722 74.492 -3.7896
11601.697577 74.243 -9.8599
11685.768261 73.956 -4.9336
11770.448155 74.134 -5.4946
11855.741674 73.964 -10.6953
11941.653265 73.660 -6.6802
12028.187408 73.897 -3.1411
12115.348612 73.966 -8.1704
12203.141422 73.768 -7.3403
12291.570415 73.861 -5.2480
12380.640201 73.724 -11.1465
12470.355424 73.332 -11.8550
12560.720760 73.228 -8.7397
12651.740920 73.191 -11.1162
12743.420650 73.229 -7.6318
12835.764729 73.677 0.1846
12928.777972 74.090 0.1313
13022.465227 74.298 -2.1030
13116.831378 74.517 -4.2925
13211.881345 74.649 -8.8594
13307.620084 74.580 -13.4473
13404.052584 74.511 -14.3115
13501.183875 74.525 -17.2417
13599.019019 74.458 -19.9727
13697.563116 74.485 -21.8613
13796.821305 74.483 -26.7314
13896.798760 74.343 -30.1807
13997.500692 74.288 -33.4819
14098.932352 73.925 -42.0747
14201.099028 72.930 -45.9062
14304.006046 72.019 -45.4746
14407.658770 71.313 -46.3018
14512.062604 70.834 -43.2017
14617.222992 70.637 -44.7153
14723.145416 70.360 -47.4224
14829.835397 70.254 -46.0024
14937.298497 70.075 -49.1011
15045.540320 69.496 -52.4541
15154.566507 68.861 -53.7129
15264.382743 68.161 -57.8662
15374.994752 67.283 -56.1572
15486.408302 66.657 -55.5591
15598.629201 66.188 -55.6611
15711.663298 66.063 -52.2173
15825.516487 65.910 -58.2944
15940.194703 64.948 -62.1841
16055.703925 63.608 -68.6689
16172.050174 62.317 -67.3057
16289.239516 61.721 -37.4756
16407.278061 61.671 -7.8252
16526.171961 62.006 4.2573
16645.927415 62.638 9.1289
16766.550667 63.954 21.5225
16888.048005 65.087 20.6768
17010.425762 66.001 21.6987
17133.690320 66.739 14.5161
17257.848103 67.400 7.7949
17382.905584 67.620 -1.9146
17508.869284 66.964 -8.1206
17635.745768 66.249 -7.5459
17763.541652 65.976 -5.3184
17892.263597 65.994 0.6108
18021.918315 66.115 3.0493
18152.512564 66.382 6.0166
18284.053153 66.705 4.9614
18416.546939 67.155 2.1362
18550.000830 67.505 -3.6816
18684.421783 67.551 -9.1367
18819.816805 67.271 -15.3213
18956.192956 66.784 -20.5273
19093.557344 66.174 -25.8818
19231.917131 65.386 -30.3628
19371.279531 64.474 -34.5708
19511.651807 63.392 -37.0464
19653.041280 62.211 -37.9302
19795.455318 61.183 -38.9502
19938.901348 60.670 -39.7847
