* Measurement data measured by REW V5.31.1
* Source: Scarlett 2i4 USB, MICROPHONE, R, volume: no control
* Format: 512k Log Swept Sine, 1 sweep at -18.0 dBFS with no timing reference
* Dated: May 7, 2024 1:53:07 PM
* REW Settings:
*  C-weighting compensation: Off
*  Target level: 75.0 dB
* Note: ; 
* Measurement: front-empty-p2-c
* Smoothing: 1/48 octave
* Frequency Step: 96 ppo
* Start Frequency: 10.093689 Hz
*
* Freq(Hz) SPL(dB) Phase(degrees)
10.093689 39.358 -17.0913
10.166832 39.227 -17.7688
10.240505 39.067 -18.0599
10.314712 38.903 -17.9707
10.389457 38.743 -17.5081
10.464743 38.608 -16.6681
10.540575 38.512 -15.3413
10.616956 38.452 -13.5902
10.693891 38.446 -11.5403
10.771383 38.514 -9.3482
10.849437 38.665 -6.9997
10.928057 38.888 -4.5138
11.007246 39.173 -2.0575
11.087009 39.508 0.2152
11.167350 39.894 2.2503
11.248273 40.338 4.1082
11.329783 40.821 5.7270
11.411883 41.323 7.0605
11.494578 41.834 8.1132
11.577873 42.363 8.9614
11.661771 42.905 9.5801
11.746277 43.450 9.9466
11.831395 43.995 10.0839
11.917130 44.542 10.0822
12.003487 45.090 9.8913
12.090469 45.636 9.4630
12.178081 46.177 8.8219
12.266329 46.716 8.0644
12.355216 47.248 7.1306
12.444747 47.771 5.9633
12.534926 48.283 4.5995
12.625760 48.784 3.1072
12.717251 49.271 1.4538
12.809406 49.739 -0.3974
12.902228 50.188 -2.4220
12.995723 50.618 -4.5739
13.089895 51.024 -6.8388
13.184750 51.403 -9.2418
13.280292 51.758 -11.8006
13.376526 52.084 -14.4368
13.473458 52.381 -17.0993
13.571093 52.647 -19.8860
13.669434 52.882 -22.7634
13.768489 53.084 -25.6190
13.868261 53.253 -28.4515
13.968756 53.389 -31.3780
14.069979 53.491 -34.2718
14.171936 53.560 -37.0274
14.274632 53.594 -39.7914
14.378072 53.594 -42.5041
14.482261 53.564 -45.0252
14.587206 53.502 -47.4120
14.692910 53.409 -49.6870
14.799381 53.292 -51.7373
14.906624 53.152 -53.5217
15.014643 52.989 -55.0859
15.123446 52.816 -56.3783
15.233036 52.638 -57.3321
15.343421 52.456 -57.9478
15.454606 52.287 -58.2591
15.566596 52.142 -58.2423
15.679398 52.022 -57.8570
15.793018 51.944 -57.2339
15.907460 51.919 -56.4199
16.022732 51.947 -55.3824
16.138840 52.030 -54.3182
16.255788 52.174 -53.2950
16.373585 52.372 -52.3019
16.492234 52.613 -51.5073
16.611744 52.894 -50.9243
16.732119 53.208 -50.5444
16.853367 53.536 -50.4412
16.975494 53.877 -50.5888
17.098505 54.223 -50.9610
17.222408 54.563 -51.5583
17.347209 54.895 -52.3633
17.472914 55.214 -53.3196
17.599530 55.515 -54.4121
17.727063 55.797 -55.6321
17.855521 56.059 -56.8973
17.984909 56.298 -58.2306
18.115235 56.516 -59.5876
18.246506 56.711 -60.9055
18.378727 56.885 -62.2236
18.511907 57.038 -63.4563
18.646052 57.170 -64.6091
18.781169 57.283 -65.6606
18.917265 57.379 -66.5302
19.054347 57.457 -67.2550
19.192423 57.525 -67.7235
19.331499 57.584 -67.9271
19.471583 57.644 -67.8279
19.612682 57.721 -67.3330
19.754804 57.823 -66.4743
19.897956 57.982 -65.2739
20.042144 58.208 -63.7163
20.187378 58.519 -62.0725
20.333664 58.934 -60.4151
20.481010 59.437 -58.9697
20.629424 60.016 -58.0511
20.778913 60.655 -57.5730
20.929486 61.308 -57.8199
21.081150 61.963 -58.6328
21.233912 62.584 -59.9805
21.387782 63.156 -61.8493
21.542767 63.665 -63.9656
21.698874 64.100 -66.3462
21.856113 64.462 -68.7549
22.014492 64.751 -71.0379
22.174018 64.978 -73.1563
22.334700 65.162 -74.8182
22.496546 65.322 -76.1132
22.659566 65.497 -76.8731
22.823766 65.707 -77.2064
22.989157 65.991 -77.3222
23.155745 66.351 -77.2870
23.323542 66.781 -77.5675
23.492554 67.264 -78.1139
23.662790 67.754 -79.2160
23.834261 68.230 -80.7294
24.006973 68.650 -82.5592
24.180938 69.006 -84.5839
24.356163 69.286 -86.4165
24.532658 69.507 -88.0026
24.710431 69.702 -88.8795
24.889493 69.923 -89.1447
25.069853 70.241 -88.5990
25.251519 70.705 -87.8096
25.434502 71.356 -86.9921
25.618811 72.153 -87.0551
25.804456 73.056 -88.0565
25.991445 73.971 -90.4475
26.179790 74.851 -93.9362
26.369500 75.630 -98.4697
26.560584 76.289 -103.7275
26.753053 76.800 -109.5260
26.946917 77.157 -115.4862
27.142185 77.354 -121.5902
27.338869 77.397 -127.2374
27.536977 77.294 -132.5064
27.736522 77.079 -136.7195
27.937512 76.801 -139.9062
28.139959 76.535 -141.5889
28.343872 76.397 -142.1673
28.549264 76.458 -141.7529
28.756143 76.764 -141.5616
28.964522 77.258 -142.1006
29.174411 77.853 -143.9432
29.385821 78.433 -147.1135
29.598763 78.936 -151.3686
29.813248 79.306 -156.4547
30.029287 79.526 -161.8618
30.246891 79.587 -167.5145
30.466073 79.497 -172.8535
30.686842 79.273 -177.7383
30.909212 78.939 178.0608
31.133193 78.540 174.8259
31.358797 78.119 172.5408
31.586035 77.722 171.3010
31.814921 77.395 170.8610
32.045465 77.160 171.0682
32.277680 77.031 171.7439
32.511577 77.015 172.6885
32.747169 77.122 173.7552
32.984469 77.362 174.7437
33.223488 77.736 175.3743
33.464239 78.213 175.2440
33.706735 78.746 174.2164
33.950987 79.279 172.2239
34.197010 79.754 169.3890
34.444816 80.140 166.0521
34.694417 80.428 162.4752
34.945827 80.626 158.9712
35.199059 80.774 155.8513
35.454126 80.921 153.1214
35.711041 81.112 150.6740
35.969818 81.378 148.2504
36.230470 81.709 145.3808
36.493011 82.063 141.8146
36.757455 82.386 137.5070
37.023814 82.627 132.5181
37.292104 82.748 127.0767
37.562338 82.732 121.5748
37.834530 82.586 116.3197
38.108695 82.333 111.5757
38.384846 82.014 107.5727
38.662999 81.684 104.4110
38.943167 81.399 101.9208
39.225365 81.188 99.7847
39.509608 81.051 97.6906
39.795911 80.964 95.4182
40.084289 80.899 92.8962
40.374756 80.835 90.1930
40.667328 80.772 87.4186
40.962020 80.726 84.5793
41.258848 80.711 81.5338
41.557827 80.723 78.0507
41.858972 80.738 73.9046
42.162299 80.708 68.9652
42.467824 80.581 63.2445
42.775564 80.304 56.8992
43.085533 79.834 50.2123
43.397749 79.135 43.5806
43.712227 78.186 37.5249
44.028983 76.984 32.7063
44.348036 75.559 29.9685
44.669400 74.010 30.2816
44.993093 72.545 34.2943
45.319131 71.445 41.3185
45.647532 70.880 48.9671
45.978313 70.766 54.9866
46.311491 70.886 58.8301
46.647083 71.075 61.0207
46.985107 71.266 62.1212
47.325581 71.437 62.3715
47.668521 71.570 61.7776
48.013947 71.628 60.3261
48.361876 71.563 58.1294
48.712326 71.328 55.4625
49.065315 70.887 52.7562
49.420863 70.217 50.6134
49.778987 69.329 49.8638
50.139706 68.295 51.5714
50.503039 67.300 56.6983
50.869005 66.627 64.9836
51.237623 66.473 74.0203
51.608912 66.746 81.1551
51.982891 67.195 85.8928
52.359580 67.661 89.2547
52.739000 68.142 92.1810
53.121168 68.691 94.7350
53.506106 69.308 96.2665
53.893833 69.910 96.2296
54.284370 70.380 94.7133
54.677737 70.632 92.3933
55.073955 70.646 90.2110
55.473043 70.468 89.0616
55.875024 70.193 89.5107
56.279917 69.932 91.6169
56.687745 69.765 95.0632
57.098527 69.744 99.6668
57.512287 69.952 105.6144
57.929045 70.526 112.7372
58.348822 71.542 119.6992
58.771642 72.905 124.6724
59.197525 74.428 126.8421
59.626495 75.968 126.4645
60.058573 77.455 123.9974
60.493782 78.842 119.6393
60.932145 80.078 113.4988
61.373685 81.104 105.8278
61.818424 81.874 97.0779
62.266386 82.369 87.8838
62.717593 82.605 78.8289
63.172071 82.635 70.4376
63.629842 82.534 63.0010
64.090930 82.376 56.4536
64.555359 82.207 50.5054
65.023154 82.043 44.8524
65.494339 81.879 39.3369
65.968938 81.718 33.8739
66.446976 81.563 28.3329
66.928478 81.408 22.5072
67.413469 81.230 16.2251
67.901975 81.002 9.4304
68.394021 80.705 2.1481
68.889632 80.326 -5.6393
69.388835 79.861 -13.9933
69.891655 79.305 -23.0767
70.398118 78.655 -33.1342
70.908252 77.913 -44.6229
71.422083 77.081 -58.1951
71.939636 76.169 -74.7419
72.460941 75.221 -95.1180
72.986023 74.363 -119.9108
73.514909 73.801 -147.8894
74.047629 73.702 -175.4138
74.584208 74.065 161.2198
75.124676 74.759 142.9993
75.669061 75.650 128.8912
76.217390 76.637 117.3019
76.769692 77.627 106.8199
77.325997 78.531 96.5848
77.886333 79.284 86.3345
78.450730 79.857 76.1308
79.019216 80.243 66.0698
79.591822 80.439 56.2543
80.168577 80.438 46.8956
80.749512 80.258 38.4402
81.334656 79.975 31.3953
81.924040 79.713 25.6692
82.517696 79.551 20.3618
83.115653 79.453 14.4735
83.717943 79.315 7.7762
84.324598 79.071 0.7228
84.935649 78.717 -6.2659
85.551128 78.281 -13.0832
86.171066 77.783 -19.8618
86.795497 77.233 -26.9053
87.424453 76.610 -34.7106
88.057967 75.851 -43.8725
88.696071 74.858 -55.0627
89.338800 73.526 -69.3558
89.986185 71.855 -89.3561
90.638262 70.460 -126.1575
91.295065 71.039 150.1394
91.956626 73.664 98.8730
92.622982 76.602 72.3386
93.294166 79.070 49.6516
93.970214 80.868 26.4572
94.651161 81.923 2.2570
95.337042 82.218 -22.1216
96.027894 81.794 -45.4454
96.723752 80.750 -66.5894
97.424652 79.234 -85.0712
98.130631 77.370 -101.4036
98.841726 75.171 -116.5366
99.557974 72.526 -130.7379
100.279412 69.386 -142.5818
101.006078 66.692 -131.6951
101.738010 67.281 -17.6086
102.475245 70.190 -24.6459
103.217823 73.039 -37.4087
103.965782 75.460 -51.5493
104.719161 77.467 -67.1703
105.477999 79.057 -84.1257
106.242336 80.251 -101.6342
107.012212 81.102 -119.0302
107.787666 81.642 -136.1129
108.568740 81.862 -152.6057
109.355474 81.778 -167.6864
110.147909 81.491 179.6029
110.946086 81.174 169.4872
111.750047 80.955 161.0425
112.559834 80.826 153.1023
113.375489 80.691 145.2876
114.197055 80.476 137.9336
115.024574 80.159 131.3464
115.858089 79.736 125.7396
116.697645 79.242 121.8788
117.543284 78.828 120.5405
118.395051 78.671 120.6934
119.252990 78.783 120.4385
120.117147 79.072 119.6125
120.987565 79.508 118.6340
121.864291 80.061 116.9033
122.747370 80.638 113.8317
123.636848 81.149 109.7992
124.532771 81.587 105.6484
125.435187 82.020 101.8165
126.344142 82.498 97.7045
127.259684 82.962 92.1683
128.181860 83.276 85.0664
129.110718 83.367 77.5244
130.046308 83.259 70.3135
130.988677 82.966 63.3015
131.937875 82.462 57.0586
132.893951 81.821 53.0863
133.856956 81.253 51.8019
134.826938 80.960 51.9492
135.803950 80.981 51.4323
136.788041 81.102 47.9579
137.779264 81.010 42.2168
138.777669 80.657 37.9465
139.783309 80.322 36.4160
140.796237 80.164 34.2869
141.816504 80.012 29.8730
142.844165 79.668 24.4998
143.879273 79.091 19.9121
144.921881 78.364 16.8461
145.972045 77.572 14.9176
147.029819 76.778 14.5630
148.095257 76.153 16.8134
149.168417 75.924 20.1158
150.249353 76.053 20.5967
151.338121 76.220 17.0723
152.434780 76.176 10.9812
153.539385 75.840 3.6415
154.651995 75.244 -4.4795
155.772667 74.422 -14.9138
156.901460 73.233 -30.2374
158.038432 71.457 -51.6177
159.183644 69.346 -83.5541
160.337154 68.480 -135.4653
161.499023 70.119 -176.3811
162.669312 72.645 161.8048
163.848081 74.856 146.2312
165.035392 76.531 133.0804
166.231306 77.675 121.3282
167.435887 78.352 111.4977
168.649196 78.770 105.2908
169.871298 79.254 103.1851
171.102255 79.984 102.3599
172.342133 80.869 100.3770
173.590995 81.872 98.4624
174.848907 83.118 97.4091
176.115934 84.607 94.8677
177.392143 86.131 88.8037
178.677599 87.467 79.2080
179.972371 88.452 66.6215
181.276525 88.975 52.0651
182.590129 88.990 36.8516
183.913252 88.498 22.0513
185.245964 87.505 8.3958
186.588332 85.996 -3.0183
187.940428 83.996 -9.9495
189.302322 81.665 -10.1443
190.674085 79.405 -2.2924
192.055788 78.109 18.2063
193.447503 78.668 40.4919
194.849303 80.359 48.8756
196.261262 82.256 50.3080
197.683452 84.095 48.3650
199.115948 85.726 42.2023
200.558824 87.001 32.2794
202.012156 87.883 20.5131
203.476019 88.395 7.6333
204.950490 88.489 -6.6466
206.435646 88.075 -21.4873
207.931564 87.132 -35.1541
209.438322 85.733 -46.2767
210.955998 83.986 -54.9398
212.484672 81.923 -62.1420
214.024424 79.609 -64.3003
215.575333 78.035 -35.6268
217.137481 78.749 -0.8762
218.710948 80.444 -4.3223
220.295818 81.737 -15.5419
221.892172 82.399 -28.9875
223.500094 82.396 -43.6865
225.119668 81.849 -56.7512
226.750978 81.077 -68.2100
228.394109 80.203 -82.8462
230.049147 78.924 -102.8848
231.716178 76.873 -126.7283
233.395289 73.923 -153.0576
235.086567 70.694 178.1848
236.790102 70.398 153.0952
238.505980 73.788 134.6221
240.234293 77.217 113.3293
241.975130 79.543 87.9338
243.728581 80.737 63.4797
245.494739 81.121 44.2891
247.273695 81.122 31.1199
249.065542 81.093 22.4697
250.870374 81.140 14.7815
252.688284 81.042 5.4724
254.519367 80.549 -3.7314
256.363720 79.702 -9.0762
258.221437 79.046 -5.7595
260.092616 79.416 3.6287
261.977354 80.629 4.9712
263.875750 81.743 -3.7034
265.787903 82.236 -17.3682
267.713911 81.891 -33.3406
269.653877 80.596 -45.0139
271.607900 78.908 -38.1587
273.576083 77.991 -28.3196
275.558528 77.720 -31.7288
277.555338 77.382 -34.7937
279.566619 77.294 -28.7205
281.592474 77.701 -27.3616
283.633009 78.091 -32.9785
285.688331 78.474 -35.4634
287.758546 78.849 -43.1165
289.843763 78.513 -59.4165
291.944090 77.074 -74.7603
294.059638 74.973 -84.2061
296.190515 74.003 -54.0527
298.336833 75.676 19.0205
300.498705 77.759 3.3557
302.676243 78.780 -18.5334
304.869559 78.734 -37.1169
307.078770 78.056 -50.2490
309.303989 77.122 -62.2224
311.545334 75.948 -77.9431
313.802919 74.895 -77.4902
316.076865 75.364 8.0801
318.367288 76.843 -4.2139
320.674309 77.865 -22.9487
322.998047 78.282 -37.7927
325.338624 78.213 -52.5852
327.696162 77.356 -68.6680
330.070783 75.646 -77.4854
332.462612 73.902 -69.7522
334.871773 73.569 -47.9836
337.298392 74.252 -49.6218
339.742595 74.532 -62.9363
342.204510 74.797 -63.3972
344.684265 76.648 -26.0476
347.181989 79.444 -25.9238
349.697813 81.822 -43.7720
352.231868 83.419 -66.5291
354.784285 84.203 -91.4102
357.355198 84.255 -115.8713
359.944741 83.783 -137.5774
362.553049 83.068 -156.6636
365.180258 82.291 -173.8074
367.826505 81.608 171.2244
370.491927 81.155 157.3662
373.176665 81.004 144.4700
375.880856 81.161 131.7124
378.604644 81.356 116.1296
381.348169 81.194 99.0120
384.111575 80.668 85.4849
386.895006 80.194 76.9548
389.698607 80.124 69.7312
392.522524 80.465 61.7944
395.366904 80.945 50.1577
398.231895 81.088 33.2549
401.117648 80.498 13.0566
404.024312 78.911 -7.2866
406.952038 76.417 -17.4998
409.900981 74.601 40.9448
412.871292 75.586 68.8608
415.863128 77.496 58.7002
418.876643 78.748 43.5347
421.911996 79.160 28.6707
424.969344 79.128 19.4646
428.048847 79.109 12.0872
431.150666 78.792 -2.0439
434.274961 77.795 -13.9395
437.421897 77.363 15.5500
440.591636 78.912 40.6038
443.784345 80.812 28.4399
447.000189 81.928 10.0879
450.239337 82.096 -9.2056
453.501956 81.370 -24.9622
456.788219 80.209 -33.5303
460.098294 79.287 -35.0784
463.432356 78.893 -38.4348
466.790578 78.246 -52.1831
470.173135 76.720 -63.0461
473.580203 74.682 -61.9016
477.011961 73.123 -58.4341
480.468586 73.408 -27.0981
483.950259 75.736 2.1335
487.457163 78.028 -10.0583
490.989478 79.249 -31.5049
494.547390 79.484 -50.9978
498.131084 79.205 -68.1255
501.740748 78.430 -85.1514
505.376568 77.929 -86.2478
509.038735 78.835 -86.0383
512.727439 79.783 -109.3394
516.442874 79.688 -138.8623
520.185232 79.157 -161.3691
523.954708 79.315 179.8772
527.751500 79.942 155.4089
531.575805 80.407 131.1145
535.427822 80.868 110.7988
539.307753 81.287 90.3413
543.215800 81.767 74.3206
547.152165 82.450 57.9666
551.117055 82.844 37.3015
555.110677 82.581 16.0354
559.133237 81.719 -1.1135
563.184947 80.681 -13.8787
567.266018 79.649 -28.5486
571.376661 78.298 -45.8149
575.517092 76.326 -59.1228
579.687526 74.318 -50.2566
583.888181 73.284 -50.4492
588.119275 72.509 -73.7944
592.381030 71.964 -109.8240
596.673667 72.851 -164.8120
600.997410 75.316 148.3706
605.352485 78.178 117.7126
609.739119 80.660 93.1533
614.157540 82.357 68.4949
618.607979 83.088 44.4536
623.090667 83.256 26.4219
627.605839 83.306 11.1323
632.153730 83.163 -4.3064
636.734576 82.744 -17.8926
641.348617 82.244 -28.0007
645.996094 81.772 -39.6006
650.677248 81.051 -53.0137
655.392323 80.225 -61.0366
660.141566 80.043 -64.2910
664.925224 80.146 -81.3564
669.743546 79.222 -107.6765
674.596784 76.867 -122.2800
679.485191 74.185 -103.7510
684.409020 73.552 -88.7185
689.368530 74.554 -93.9199
694.363979 74.852 -127.5154
699.395626 73.902 -165.0271
704.463736 72.632 159.3733
709.568570 71.758 119.7656
714.710396 71.649 91.0227
719.889483 73.456 129.2915
725.106099 76.081 126.5337
730.360516 78.440 102.3147
735.653010 80.530 80.0081
740.983855 82.027 55.4434
746.353329 82.871 31.2812
751.761713 83.160 7.5833
757.209288 82.837 -15.9121
762.696339 81.936 -36.3086
768.223151 80.901 -53.4712
773.790013 79.965 -75.5071
779.397214 79.171 -102.8774
785.045047 79.177 -140.5417
790.733808 79.992 163.6150
796.463791 80.749 106.2166
802.235296 81.244 64.1101
808.048623 81.782 32.3447
813.904077 82.072 2.7871
819.801961 81.587 -26.2422
825.742584 80.071 -46.7383
831.726255 78.069 -51.5137
837.753287 76.288 -60.2036
843.823992 75.076 -70.7871
849.938689 74.759 -72.7632
856.097695 75.431 -41.3770
862.301332 76.258 -63.3027
868.549922 76.381 -100.2051
874.843793 76.143 -142.6665
881.183272 75.780 165.7676
887.568689 75.220 119.3633
894.000378 75.664 92.1387
900.478673 76.770 64.2852
907.003913 76.937 35.3062
913.576437 76.416 20.0732
920.196588 76.404 15.4194
926.864712 76.850 6.3765
933.581156 77.053 -7.2642
940.346270 76.802 -19.3457
947.160407 76.512 -27.1562
954.023921 76.657 -34.0005
960.937172 77.238 -43.7383
967.900519 78.278 -55.5391
974.914325 79.696 -78.3540
981.978956 80.257 -122.1997
989.094780 79.500 163.2437
996.262169 79.052 50.4175
1003.481495 80.144 -6.8818
1010.753136 81.239 -54.7119
1018.077470 80.786 -104.4805
1025.454879 78.751 -150.3564
1032.885748 76.998 159.2695
1040.370463 77.140 86.4336
1047.909417 78.100 16.6001
1055.503000 79.131 -49.4258
1063.151610 79.546 -141.2632
1070.855645 78.980 94.5732
1078.615506 77.799 34.8643
1086.431599 76.953 -0.8384
1094.304330 76.280 -17.1865
1102.234110 76.712 -14.1792
1110.221353 78.548 -35.8882
1118.266475 79.965 -76.6616
1126.369895 79.785 -127.2466
1134.532035 78.034 -169.7910
1142.753322 76.284 -177.5581
1151.034184 75.581 140.6172
1159.375052 74.492 76.3496
1167.776361 73.205 -18.0137
1176.238550 73.726 -166.9692
1184.762060 75.696 143.3164
1193.347334 77.373 102.9683
1201.994821 77.837 64.3477
1210.704971 76.885 31.0537
1219.478238 75.070 23.9395
1228.315080 75.251 56.2192
1237.215957 77.735 53.1177
1246.181334 79.632 27.0566
1255.211678 80.053 -4.7891
1264.307459 79.230 -31.7603
1273.469152 78.018 -44.1733
1282.697235 76.976 -61.3643
1291.992188 75.321 -85.7754
1301.354495 73.730 -100.6685
1310.784647 73.826 -126.3125
1320.283132 75.004 -174.6221
1329.850448 76.442 132.4229
1339.487093 77.523 85.6401
1349.193569 78.170 46.5327
1358.970381 78.224 11.3613
1368.818041 77.836 -20.7773
1378.737061 77.149 -57.5664
1388.727958 75.893 -103.1162
1398.791253 74.690 -165.2681
1408.927471 75.200 123.1899
1419.137140 76.172 71.3555
1429.420793 76.390 32.0620
1439.778965 75.785 -3.2744
1450.212197 74.375 -36.5518
1460.721033 73.181 53.7798
1471.306019 73.161 53.3081
1481.967709 74.092 45.2148
1492.706658 76.142 46.0215
1503.523426 78.381 30.5776
1514.418576 79.950 7.5957
1525.392678 80.166 -20.3604
1536.446302 79.018 -37.9697
1547.580025 78.524 -32.1299
1558.794428 80.261 -30.6777
1570.090095 81.934 -57.1733
1581.467615 82.258 -96.0063
1592.927581 81.574 -139.9424
1604.470591 80.385 167.3560
1616.097246 79.204 107.4956
1627.808153 77.924 55.3867
1639.603922 76.841 34.4370
1651.485168 77.468 30.3696
1663.452510 78.619 7.7354
1675.506573 79.065 -19.0732
1687.647984 79.208 -32.9282
1699.877377 80.395 -20.7524
1712.195390 81.543 -40.8423
1724.602663 81.229 -74.1982
1737.099845 79.393 -98.5273
1749.687587 77.001 -88.7129
1762.366544 75.576 -85.3037
1775.137379 75.394 -92.4707
1788.000756 76.709 -114.6548
1800.957346 78.365 121.1963
1814.007826 79.368 17.0547
1827.152874 79.646 -19.5234
1840.393177 80.508 -40.0439
1853.729425 81.713 -63.6816
1867.162312 82.570 -89.8130
1880.692540 82.884 -126.0532
1894.320813 82.738 -176.3145
1908.047843 83.288 100.4814
1921.874344 84.785 14.0210
1935.801038 85.329 -43.5381
1949.828650 84.504 -75.4922
1963.957912 84.603 -73.5288
1978.189561 85.487 -100.8721
1992.524338 84.895 -139.4121
2006.962991 83.475 -172.6250
2021.506272 82.639 174.6250
2036.154940 82.463 -142.4229
2050.909758 82.322 96.2500
2065.771495 81.371 -3.0820
2080.740927 81.732 -15.0928
2095.818833 84.230 -23.7510
2111.006001 85.808 -57.5508
2126.303220 85.376 -91.9355
2141.711290 84.296 -108.3867
2157.231013 83.398 -125.2305
2172.863198 81.560 -141.4238
2188.608660 80.098 -136.4961
2204.468221 81.290 -140.5576
2220.442706 83.514 -138.4795
2236.532950 85.144 -55.0303
2252.739789 85.571 -98.6250
2269.064070 84.662 -132.2432
2285.506644 82.869 -133.3545
2302.068367 81.471 -133.4473
2318.750104 80.959 -129.2334
2335.552723 81.599 -104.2959
2352.477101 83.219 -81.9072
2369.524119 84.151 -94.9990
2386.694668 83.905 -113.0186
2403.989641 83.928 -124.7305
2421.409941 84.932 -136.2305
2438.956476 85.752 -158.3555
2456.630160 84.751 172.9092
2474.431915 82.434 163.9512
2492.362668 81.375 -102.6943
2510.423356 81.479 -116.7246
2528.614918 81.480 -127.4082
2546.938304 82.775 -123.0850
2565.394469 84.735 -133.5684
2583.984375 85.761 -157.3564
2602.708991 85.334 175.7217
2621.569293 84.604 159.7109
2640.566265 84.475 -144.4736
2659.700897 84.080 -157.4902
2678.974186 82.766 179.8408
2698.387137 81.766 -161.9307
2717.940763 82.147 -151.0488
2737.636082 82.194 -166.0967
2757.474121 82.011 -164.8604
2777.455915 82.525 -149.1973
2797.582506 83.871 -149.9268
2817.854942 84.620 -172.4434
2838.274281 84.151 165.2158
2858.841586 83.172 146.8223
2879.557931 81.961 135.5918
2900.424394 81.258 151.8809
2921.442065 81.738 -171.6650
2942.612039 82.198 -143.9834
2963.935418 82.459 -141.7773
2985.413316 83.110 -158.6465
3007.046852 83.333 179.0459
3028.837153 82.913 166.9629
3050.785356 82.610 158.5371
3072.892604 82.145 137.8447
3095.160050 80.945 112.3662
3117.588856 79.524 105.2168
3140.180190 78.874 -144.3506
3162.935230 79.963 -148.0879
3185.855163 81.058 -166.6328
3208.941182 81.137 178.3965
3232.194493 81.656 -158.9541
3255.616307 82.723 -160.3701
3279.207844 83.499 175.3037
3302.970336 83.432 157.1123
3326.905021 82.737 154.1484
3351.013146 82.421 151.7451
3375.295969 82.511 -173.5264
3399.754755 82.795 -137.6963
3424.390779 82.974 -144.7891
3449.205326 82.424 -169.3584
3474.199690 81.424 -178.3457
3499.375173 80.777 -163.8438
3524.733088 80.752 -173.7793
3550.274757 81.117 -157.1270
3576.001511 82.104 -143.6328
3601.914692 82.817 -166.4326
3628.015651 82.912 173.5645
3654.305748 83.156 -155.7461
3680.786354 83.896 -145.8877
3707.458849 83.863 -174.3027
3734.324624 82.524 161.7324
3761.385080 80.534 166.6328
3788.641627 79.290 -168.9424
3816.095686 79.365 -163.7305
3843.748688 80.042 -158.7627
3871.602076 81.319 -146.6338
3899.657300 82.688 -159.0830
3927.915825 82.894 -179.1689
3956.379122 81.821 175.9199
3985.048676 81.071 -168.5791
4013.925981 81.725 -168.2012
4043.012544 82.931 -165.4805
4072.309879 84.147 -167.3301
4101.819515 84.711 175.3037
4131.542990 84.573 158.1582
4161.481854 83.768 143.6523
4191.637667 82.342 146.5586
4222.012001 81.142 165.1934
4252.606441 81.165 -168.6104
4283.422580 81.974 -169.6660
4314.462026 82.196 173.3203
4345.726396 81.666 160.5723
4377.217321 80.851 155.9902
4408.936442 80.405 164.6982
4440.885413 80.817 168.3301
4473.065899 81.125 166.2773
4505.479579 81.481 177.4258
4538.128141 82.396 -176.5000
4571.013288 83.079 172.7197
4604.136735 82.697 156.8281
4637.500207 81.916 146.4102
4671.105446 81.766 167.7441
4704.954201 82.359 178.7568
4739.048239 82.164 165.3389
4773.389336 80.997 159.6914
4807.979283 79.834 166.2959
4842.819883 79.711 172.7109
4877.912952 80.247 167.8955
4913.260320 80.282 164.3555
4948.863830 79.856 165.8643
4984.725337 79.562 167.4424
5020.846712 79.576 166.4355
5057.229836 79.205 158.7861
5093.876609 78.989 170.6367
5130.788938 80.176 -166.7988
5167.968750 81.424 -175.2656
5205.417982 81.713 169.1055
5243.138586 81.137 157.6904
5281.132530 80.376 161.5244
5319.401793 80.487 171.6758
5357.948371 80.874 173.8359
5396.774274 81.161 178.6025
5435.881525 81.592 -176.8096
5475.272163 82.208 178.3105
5514.948243 82.188 165.1348
5554.911831 81.614 172.7363
5595.165012 81.921 -176.7334
5635.709884 82.682 174.5371
5676.548561 82.751 160.2275
5717.683172 82.348 155.6465
5759.115861 82.282 169.7471
5800.848789 82.070 166.0430
5842.884130 81.676 166.0166
5885.224077 81.828 168.1768
5927.870837 82.156 169.1162
5970.826633 82.427 168.5381
6014.093704 82.450 171.1641
6057.674306 82.670 171.1680
6101.570711 82.654 160.6348
6145.785208 82.029 151.4531
6190.320101 81.474 162.0752
6235.177712 81.935 171.8496
6280.360380 82.450 165.5859
6325.870460 82.451 157.9873
6371.710325 82.182 157.5469
6417.882365 82.018 157.2373
6464.388986 81.978 162.3564
6511.232613 82.337 164.5264
6558.415689 82.455 156.0918
6605.940673 82.008 150.6094
6653.810042 82.006 159.8877
6702.026292 83.009 164.2393
6750.591937 83.449 152.5908
6799.509509 83.046 148.7422
6848.781558 82.845 153.4395
6898.410653 82.969 153.1006
6948.399380 82.881 150.2119
6998.750346 82.582 148.0771
7049.466176 82.146 148.8770
7100.549514 81.929 150.3096
7152.003023 82.077 146.6045
7203.829385 81.940 137.3682
7256.031302 81.137 130.3936
7308.611496 79.956 130.9541
7361.572708 79.205 138.9941
7414.917698 79.134 141.8857
7468.649249 79.372 148.1670
7522.770160 79.752 157.7842
7577.283253 80.249 168.4746
7632.191371 80.711 170.6924
7687.497376 80.445 162.0801
7743.204151 80.060 166.5020
7799.314600 80.061 168.1953
7855.831649 79.808 164.9795
7912.758244 79.621 168.4209
7970.097352 80.031 172.1680
8027.851962 80.615 173.5361
8086.025087 81.030 176.8125
8144.619758 81.190 173.9102
8203.639030 81.397 173.4932
8263.085980 81.772 170.3047
8322.963708 81.616 164.9160
8383.275334 81.471 170.1338
8444.024002 81.807 172.4844
8505.212881 82.007 169.1484
8566.845160 81.929 168.2930
8628.924051 81.910 169.1191
8691.452792 82.124 167.8398
8754.434642 82.267 163.8330
8817.872884 81.967 160.6074
8881.770826 81.791 162.1143
8946.131799 81.849 159.7607
9010.959157 81.833 161.7139
9076.256282 81.743 163.0938
9142.026576 81.625 165.2676
9208.273470 81.499 163.9326
9275.000415 81.338 171.4932
9342.210891 81.654 172.6221
9409.908403 81.823 165.3262
9478.096478 81.531 165.3125
9546.778672 81.511 169.1260
9615.958566 81.571 165.3604
9685.639765 81.357 164.1328
9755.825904 81.365 166.7754
9826.520640 81.475 163.6973
9897.727659 81.313 164.3203
9969.450674 81.261 168.4756
10041.693423 81.443 169.7080
10114.459673 81.755 169.9160
10187.753217 82.011 167.8896
10261.577877 82.050 163.2910
10335.937500 81.826 160.0293
10410.835964 81.671 161.6211
10486.277173 81.427 157.1582
10562.265060 80.806 158.4521
10638.803587 80.533 162.2910
10715.896743 80.378 158.5439
10793.548548 79.900 158.9316
10871.763050 79.607 162.1309
10950.544327 79.331 159.5635
11029.896485 78.976 162.7227
11109.823662 78.927 166.2119
11190.330024 79.021 168.0527
11271.419768 79.146 166.5977
11353.097122 78.976 162.5166
11435.366344 78.468 162.3086
11518.231722 78.240 169.1641
11601.697577 78.357 172.8643
11685.768261 78.506 176.0576
11770.448155 78.443 176.9277
11855.741674 78.029 175.6436
11941.653265 77.969 -175.9170
12028.187408 78.111 -172.9482
12115.348612 77.810 -169.0996
12203.141422 77.737 -163.0137
12291.570415 78.193 -158.3184
12380.640201 78.717 -155.2305
12470.355424 78.788 -156.6055
12560.720760 79.084 -149.8350
12651.740920 79.735 -150.3887
12743.420650 80.160 -154.1279
12835.764729 80.482 -156.8379
12928.777972 80.641 -160.6719
13022.465227 80.754 -161.7764
13116.831378 80.829 -165.5176
13211.881345 80.663 -168.8906
13307.620084 80.448 -171.3633
13404.052584 80.207 -174.0723
13501.183875 80.027 -175.5684
13599.019019 79.806 -177.1445
13697.563116 79.727 -175.4668
13796.821305 79.715 -176.1602
13896.798760 79.390 -177.3740
13997.500692 78.782 -177.2539
14098.932352 78.335 -173.1562
14201.099028 78.233 -171.2920
14304.006046 78.027 -171.5205
14407.658770 77.529 -173.2080
14512.062604 77.050 -169.8926
14617.222992 76.936 -167.1660
14723.145416 76.955 -165.9072
14829.835397 77.051 -165.8320
14937.298497 77.087 -169.1436
15045.540320 76.888 -172.8955
15154.566507 76.550 -175.3760
15264.382743 76.126 -179.3838
15374.994752 75.496 177.2041
15486.408302 74.779 175.8506
15598.629201 74.093 174.9424
15711.663298 73.437 175.4219
15825.516487 72.840 177.5830
15940.194703 72.271 178.5635
16055.703925 71.662 179.5977
16172.050174 71.087 -179.3633
16289.239516 70.466 -178.6113
16407.278061 69.751 -177.1719
16526.171961 68.990 -174.5000
16645.927415 68.346 -172.0137
16766.550667 67.739 -170.1631
16888.048005 67.153 -167.4502
17010.425762 66.727 -162.3662
17133.690320 66.501 -152.2949
17257.848103 66.189 -142.6445
17382.905584 65.900 -138.3828
17508.869284 65.726 -136.6221
17635.745768 65.488 -135.3252
17763.541652 65.175 -131.6357
17892.263597 65.032 -121.8809
18021.918315 65.262 -115.1396
18152.512564 65.594 -113.3340
18284.053153 65.768 -113.5137
18416.546939 65.508 -114.4023
18550.000830 64.801 -113.1436
18684.421783 64.206 -108.1816
18819.816805 63.790 -105.4580
18956.192956 63.501 -102.7383
19093.557344 63.416 -99.8311
19231.917131 63.158 -98.3604
19371.279531 62.594 -95.7480
19511.651807 61.931 -93.7979
19653.041280 61.048 -94.8701
19795.455318 59.924 -94.4668
19938.901348 59.005 -94.6348
