* Measurement data measured by REW V5.31.1
* Source: Scarlett 2i4 USB, MICROPHONE, R, volume: no control
* Format: 512k Log Swept Sine, 1 sweep at -18.0 dBFS with no timing reference
* Dated: May 7, 2024 1:59:01 PM
* REW Settings:
*  C-weighting compensation: Off
*  Target level: 75.0 dB
* Note: ; 
* Measurement: front-empty-p3-r
* Smoothing: 1/48 octave
* Frequency Step: 96 ppo
* Start Frequency: 10.093689 Hz
*
* Freq(Hz) SPL(dB) Phase(degrees)
10.093689 46.024 60.0827
10.166832 46.502 55.6184
10.240505 47.076 51.4225
10.314712 47.666 47.4573
10.389457 48.254 43.6629
10.464743 48.817 39.9631
10.540575 49.340 36.3037
10.616956 49.834 32.7169
10.693891 50.297 29.2062
10.771383 50.726 25.7419
10.849437 51.120 22.1903
10.928057 51.480 18.5616
11.007246 51.802 14.9461
11.087009 52.082 11.3865
11.167350 52.320 7.7620
11.248273 52.516 3.9180
11.329783 52.664 0.0178
11.411883 52.758 -3.8063
11.494578 52.796 -7.6085
11.577873 52.780 -11.7279
11.661771 52.699 -15.9773
11.746277 52.540 -20.1280
11.831395 52.301 -24.1605
11.917130 51.988 -28.5768
12.003487 51.571 -33.1913
12.090469 51.016 -37.6634
12.178081 50.328 -41.9223
12.266329 49.522 -46.6275
12.355216 48.480 -51.6026
12.444747 47.017 -56.2950
12.534926 44.789 -60.5868
12.625760 41.925 -65.2735
12.717251 39.290 -70.1739
12.809406 38.230 -71.6125
12.902228 39.326 87.1347
12.995723 41.569 89.0123
13.089895 43.900 85.2053
13.184750 45.879 79.9416
13.280292 47.741 74.1173
13.376526 49.431 68.5094
13.473458 50.822 63.0620
13.571093 51.882 56.9633
13.669434 52.689 50.6138
13.768489 53.330 44.5349
13.868261 53.850 38.4025
13.968756 54.225 31.5603
14.069979 54.464 24.7150
14.171936 54.581 18.2030
14.274632 54.575 10.8958
14.378072 54.434 3.1405
14.482261 54.152 -4.2977
14.587206 53.727 -12.4014
14.692910 53.150 -21.6237
14.799381 52.393 -31.0839
14.906624 51.394 -41.3971
15.014643 50.222 -54.5464
15.123446 49.109 -70.2546
15.233036 48.172 -89.8654
15.343421 47.456 -118.8618
15.454606 47.316 -151.7842
15.566596 48.079 179.3290
15.679398 49.508 155.8018
15.793018 51.028 139.0514
15.907460 52.344 125.4140
16.022732 53.549 112.8828
16.138840 54.602 102.2069
16.255788 55.465 92.1306
16.373585 56.164 81.9874
16.492234 56.731 72.7773
16.611744 57.175 63.5729
16.732119 57.499 54.1791
16.853367 57.721 45.5394
16.975494 57.842 36.6803
17.098505 57.865 27.7903
17.222408 57.799 19.6451
17.347209 57.642 11.3052
17.472914 57.401 3.2695
17.599530 57.076 -3.9531
17.727063 56.674 -11.0090
17.855521 56.213 -17.2619
17.984909 55.691 -22.4042
18.115235 55.162 -26.6931
18.246506 54.694 -29.7276
18.378727 54.308 -31.1133
18.511907 54.122 -31.7817
18.646052 54.212 -31.6109
18.781169 54.538 -31.1312
18.917265 55.057 -31.6971
19.054347 55.743 -32.8317
19.192423 56.462 -34.9283
19.331499 57.157 -38.0959
19.471583 57.798 -41.7518
19.612682 58.337 -45.7900
19.754804 58.773 -50.2299
19.897956 59.099 -54.3444
20.042144 59.311 -58.4628
20.187378 59.425 -62.0706
20.333664 59.442 -64.9351
20.481010 59.438 -67.1600
20.629424 59.439 -68.3053
20.778913 59.460 -68.5062
20.929486 59.561 -68.0659
21.081150 59.811 -66.9139
21.233912 60.199 -65.9569
21.387782 60.720 -65.2627
21.542767 61.298 -65.1910
21.698874 61.886 -65.9327
21.856113 62.440 -67.1722
22.014492 62.916 -68.9120
22.174018 63.309 -70.8680
22.334700 63.608 -72.6989
22.496546 63.829 -74.4027
22.659566 63.999 -75.5155
22.823766 64.146 -76.1591
22.989157 64.330 -76.1948
23.155745 64.574 -75.7496
23.323542 64.916 -75.2625
23.492554 65.351 -74.7991
23.662790 65.845 -74.9462
23.834261 66.368 -75.5838
24.006973 66.858 -76.8783
24.180938 67.292 -78.6281
24.356163 67.636 -80.5564
24.532658 67.891 -82.5252
24.710431 68.067 -84.0446
24.889493 68.203 -85.0857
25.069853 68.355 -85.2439
25.251519 68.595 -84.8489
25.434502 68.991 -83.9072
25.618811 69.556 -83.3556
25.804456 70.282 -83.3719
25.991445 71.080 -84.7360
26.179790 71.897 -87.2418
26.369500 72.646 -91.0082
26.560584 73.294 -95.6614
26.753053 73.803 -101.0438
26.946917 74.161 -106.7145
27.142185 74.360 -112.6383
27.338869 74.406 -118.1727
27.536977 74.311 -123.3787
27.736522 74.114 -127.5612
27.937512 73.871 -130.7697
28.139959 73.664 -132.5601
28.343872 73.606 -133.4451
28.549264 73.759 -133.5844
28.756143 74.144 -134.2191
28.964522 74.692 -135.7294
29.174411 75.311 -138.6017
29.385821 75.890 -142.7328
29.598763 76.375 -147.8785
29.813248 76.714 -153.7528
30.029287 76.890 -159.8207
30.246891 76.898 -166.0210
30.466073 76.746 -171.7087
30.686842 76.457 -176.7278
30.909212 76.065 179.2346
31.133193 75.639 176.4728
31.358797 75.249 174.8724
31.586035 74.962 174.3901
31.814921 74.823 174.3372
32.045465 74.812 174.3287
32.277680 74.890 174.0383
32.511577 74.993 173.3875
32.747169 75.094 172.6545
32.984469 75.193 172.0124
33.223488 75.322 171.7147
33.464239 75.533 171.6369
33.706735 75.851 171.4915
33.950987 76.275 170.9435
34.197010 76.758 169.5605
34.444816 77.241 167.3364
34.694417 77.678 164.4045
34.945827 78.037 160.9796
35.199059 78.320 157.4681
35.454126 78.553 154.0916
35.711041 78.778 150.9477
35.969818 79.042 148.0381
36.230470 79.377 145.0593
36.493011 79.779 141.6593
36.757455 80.213 137.6390
37.023814 80.631 132.9083
37.292104 80.985 127.5536
37.562338 81.242 121.9372
37.834530 81.404 116.4368
38.108695 81.497 111.3867
38.384846 81.580 107.0728
38.662999 81.736 103.6023
38.943167 82.042 100.6342
39.225365 82.522 97.5591
39.509608 83.137 93.8649
39.795911 83.817 89.3215
40.084289 84.491 84.0055
40.374756 85.121 78.2347
40.667328 85.718 72.4517
40.962020 86.334 66.9758
41.258848 87.042 61.8018
41.557827 87.896 56.5796
41.858972 88.899 50.7559
42.162299 89.998 43.8315
42.467824 91.110 35.5588
42.775564 92.153 25.9692
43.085533 93.066 15.2899
43.397749 93.811 3.8448
43.712227 94.373 -8.0036
44.028983 94.746 -19.9083
44.348036 94.938 -31.5573
44.669400 94.967 -42.6727
44.993093 94.857 -53.0172
45.319131 94.646 -62.4134
45.647532 94.375 -70.7656
45.978313 94.085 -78.0729
46.311491 93.811 -84.4172
46.647083 93.578 -89.9236
46.985107 93.405 -94.7211
47.325581 93.305 -98.9368
47.668521 93.293 -102.7238
48.013947 93.373 -106.2739
48.361876 93.538 -109.7760
48.712326 93.768 -113.3385
49.065315 94.047 -116.9557
49.420863 94.374 -120.5613
49.778987 94.761 -124.1388
50.139706 95.225 -127.7949
50.503039 95.766 -131.7195
50.869005 96.368 -136.0667
51.237623 97.013 -140.8728
51.608912 97.700 -146.1045
51.982891 98.441 -151.8118
52.359580 99.245 -158.2432
52.739000 100.088 -165.7927
53.121168 100.909 -174.7905
53.506106 101.624 174.6791
53.893833 102.155 162.7795
54.284370 102.439 149.8547
54.677737 102.435 136.3805
55.073955 102.121 122.9116
55.473043 101.499 110.0569
55.875024 100.597 98.4387
56.279917 99.477 88.6064
56.687745 98.246 80.9200
57.098527 97.029 75.2312
57.512287 95.921 70.8486
57.929045 94.937 67.0308
58.348822 94.033 63.4836
58.771642 93.170 60.3246
59.197525 92.357 57.7018
59.626495 91.619 55.4661
60.058573 90.959 53.2859
60.493782 90.344 50.9606
60.932145 89.742 48.5784
61.373685 89.146 46.2997
61.818424 88.564 44.1505
62.266386 87.999 42.0471
62.717593 87.440 39.9808
63.172071 86.886 38.0516
63.629842 86.352 36.3063
64.090930 85.854 34.6334
64.555359 85.389 32.8625
65.023154 84.944 30.9540
65.494339 84.516 28.9633
65.968938 84.115 26.8242
66.446976 83.742 24.2782
66.928478 83.366 21.0374
67.413469 82.933 17.0038
67.901975 82.394 12.2650
68.394021 81.706 6.9772
68.889632 80.831 1.2202
69.388835 79.719 -4.9077
69.891655 78.304 -11.3147
70.398118 76.498 -17.8477
70.908252 74.201 -24.4846
71.422083 71.437 -31.3344
71.939636 69.360 -37.2245
72.460941 70.652 128.8074
72.986023 73.757 118.4059
73.514909 76.418 105.7471
74.047629 78.314 91.8687
74.584208 79.522 77.2760
75.124676 80.148 62.6027
75.669061 80.292 48.1085
76.217390 80.045 34.0490
76.769692 79.492 20.3019
77.325997 78.713 6.5560
77.886333 77.796 -7.7485
78.450730 76.849 -23.4946
79.019216 76.004 -41.6942
79.591822 75.403 -62.8757
80.168577 75.157 -86.1353
80.749512 75.289 -109.0908
81.334656 75.713 -129.3787
81.924040 76.295 -146.0526
82.517696 76.928 -159.2587
83.115653 77.573 -169.4419
83.717943 78.252 -177.1392
84.324598 78.994 176.8368
84.935649 79.789 171.5938
85.551128 80.599 166.6718
86.171066 81.419 162.0950
86.795497 82.280 157.7921
87.424453 83.185 153.1655
88.057967 84.068 147.5503
88.696071 84.838 140.8402
89.338800 85.433 133.4219
89.986185 85.839 125.7709
90.638262 86.066 118.1732
91.295065 86.118 110.6066
91.956626 85.954 102.8571
92.622982 85.474 95.1499
93.294166 84.599 89.2069
93.970214 83.508 89.0359
94.651161 82.919 97.7743
95.337042 83.445 107.1947
96.027894 84.550 108.5051
96.723752 85.538 104.5649
97.424652 86.268 99.3442
98.130631 86.846 94.2450
98.841726 87.377 89.1049
99.557974 87.897 83.4261
100.279412 88.390 76.7556
101.006078 88.804 68.7607
101.738010 89.069 59.3917
102.475245 89.126 48.8003
103.217823 88.917 37.1505
103.965782 88.372 24.7590
104.719161 87.424 12.3829
105.477999 86.055 1.1829
106.242336 84.319 -7.7926
107.012212 82.322 -14.0732
107.787666 80.194 -17.4092
108.568740 78.131 -18.1101
109.355474 76.359 -18.8386
110.147909 74.917 -22.9254
110.946086 73.707 -31.8073
111.750047 72.824 -47.2755
112.559834 72.611 -71.9171
113.375489 73.339 -103.2896
114.197055 74.799 -132.0873
115.024574 76.514 -153.6516
115.858089 78.165 -169.3467
116.697645 79.614 178.5742
117.543284 80.808 168.7031
118.395051 81.759 160.6857
119.252990 82.541 154.4497
120.117147 83.233 149.6569
120.987565 83.916 146.1759
121.864291 84.680 143.6553
122.747370 85.540 140.9370
123.636848 86.407 137.0706
124.532771 87.176 132.0818
125.435187 87.798 126.7023
126.344142 88.306 121.6682
127.259684 88.735 116.7283
128.181860 89.052 111.4181
129.110718 89.235 106.4845
130.046308 89.366 102.7490
130.988677 89.539 99.7406
131.937875 89.779 96.8959
132.893951 90.080 94.0508
133.856956 90.413 90.8302
134.826938 90.734 87.2440
135.803950 91.016 83.4103
136.788041 91.239 79.3230
137.779264 91.416 75.5205
138.777669 91.619 72.2080
139.783309 91.880 68.4750
140.796237 92.130 63.5828
141.816504 92.275 57.7465
142.844165 92.271 51.5817
143.879273 92.097 45.2491
144.921881 91.696 38.5786
145.972045 90.986 32.3962
147.029819 89.978 28.6763
148.095257 88.872 29.2135
149.168417 88.071 34.6548
150.249353 88.032 43.0403
151.338121 88.779 48.7777
152.434780 89.841 48.9146
153.539385 90.798 44.7460
154.651995 91.465 38.0549
155.772667 91.776 30.0175
156.901460 91.724 21.7958
158.038432 91.373 14.6361
159.183644 90.857 9.2279
160.337154 90.303 4.9493
161.499023 89.722 0.6125
162.669312 89.033 -3.7261
163.848081 88.188 -7.1509
165.035392 87.220 -9.0767
166.231306 86.161 -10.0743
167.435887 85.004 -9.3474
168.649196 83.897 -4.2883
169.871298 83.193 4.6007
171.102255 83.115 13.2147
172.342133 83.672 21.4891
173.590995 84.839 29.1250
174.848907 86.340 31.8965
176.115934 87.728 28.2185
177.392143 88.705 20.0879
178.677599 89.175 10.0958
179.972371 89.161 0.0020
181.276525 88.714 -9.2651
182.590129 87.890 -16.7106
183.913252 86.835 -20.4941
185.245964 85.913 -19.1556
186.588332 85.607 -14.7926
187.940428 85.980 -13.4850
189.302322 86.530 -18.7438
190.674085 86.772 -28.7440
192.055788 86.513 -40.7448
193.447503 85.801 -52.2050
194.849303 84.886 -62.4956
196.261262 83.987 -75.0901
197.683452 83.032 -93.5386
199.115948 81.881 -119.3911
200.558824 80.715 -155.9099
202.012156 80.247 149.6360
203.476019 81.411 50.5054
204.950490 83.983 -62.3501
206.435646 86.894 -119.0100
207.931564 89.565 -158.0571
209.438322 91.796 170.8669
210.955998 93.423 143.2034
212.484672 94.318 117.6289
214.024424 94.523 95.5264
215.575333 94.212 77.8918
217.137481 93.580 64.9382
218.710948 93.008 59.3867
220.295818 93.243 61.8823
221.892172 94.380 60.5193
223.500094 95.635 50.7954
225.119668 96.529 36.8032
226.750978 96.899 20.1726
228.394109 96.622 1.8889
230.049147 95.620 -16.3193
231.716178 93.867 -32.9116
233.395289 91.372 -46.5923
235.086567 88.333 -56.4409
236.790102 86.205 -38.7952
238.505980 87.483 84.6038
240.234293 90.244 73.9988
241.975130 92.600 61.1401
243.728581 94.320 47.9299
245.494739 95.450 34.4766
247.273695 96.085 21.9280
249.065542 96.412 11.6189
250.870374 96.644 3.1797
252.688284 96.877 -4.9438
254.519367 97.078 -13.6765
256.363720 97.190 -22.8574
258.221437 97.176 -32.5447
260.092616 96.949 -43.3799
261.977354 96.379 -54.7991
263.875750 95.401 -65.1147
265.787903 94.074 -72.0869
267.713911 92.691 -73.2666
269.653877 91.724 -71.1130
271.607900 91.273 -72.2754
273.576083 90.914 -77.9243
275.558528 90.206 -86.0642
277.555338 88.974 -91.9009
279.566619 87.636 -87.3650
281.592474 87.088 -77.8508
283.633009 87.178 -80.1677
285.688331 86.791 -91.7512
287.758546 85.359 -101.7368
289.843763 83.153 -99.0867
291.944090 81.605 -68.6760
294.059638 82.370 -37.8037
296.190515 84.182 -34.5737
298.336833 85.783 -38.9561
300.498705 87.263 -41.4836
302.676243 88.800 -44.1426
304.869559 90.054 -53.3601
307.078770 90.663 -66.8123
309.303989 90.675 -78.9194
311.545334 90.517 -86.2251
313.802919 90.803 -88.5315
316.076865 91.583 -94.7153
318.367288 92.160 -109.3262
320.674309 92.066 -126.9338
322.998047 91.358 -142.4810
325.338624 90.319 -155.4512
327.696162 89.115 -168.0613
330.070783 87.666 178.6792
332.462612 85.809 166.8640
334.871773 83.523 158.7886
337.298392 80.928 154.5369
339.742595 78.301 160.0767
342.204510 76.958 -168.6538
344.684265 78.344 -148.1887
347.181989 81.101 -146.6948
349.697813 83.996 -152.7437
352.231868 86.457 -166.2983
354.784285 87.921 169.7476
357.355198 88.161 142.9641
359.944741 87.417 121.2583
362.553049 86.230 107.2837
365.180258 85.269 100.3228
367.826505 85.193 97.9771
370.491927 86.133 94.8760
373.176665 87.433 85.5337
375.880856 88.267 68.3428
378.604644 88.219 48.9226
381.348169 87.410 34.0552
384.111575 86.397 27.7395
386.895006 85.741 23.6497
389.698607 85.265 15.2107
392.522524 85.127 16.6838
395.366904 86.220 27.6436
398.231895 87.798 20.0452
401.117648 88.711 1.4536
404.024312 88.647 -19.1545
406.952038 87.653 -36.5522
409.900981 86.163 -44.6987
412.871292 84.959 -47.8716
415.863128 84.060 -58.3015
418.876643 82.973 -64.6865
421.911996 82.598 -52.6787
424.969344 83.594 -54.8159
428.048847 84.679 -74.1956
431.150666 85.009 -101.3154
434.274961 84.434 -132.2014
437.421897 83.025 -164.5618
440.591636 81.098 166.2134
443.784345 79.572 141.2937
447.000189 78.853 108.7454
450.239337 78.602 75.0459
453.501956 80.149 -170.8909
456.788219 83.072 166.4365
460.098294 85.513 136.1123
463.432356 86.835 105.9731
466.790578 86.967 78.8071
470.173135 86.127 59.4810
473.580203 85.245 56.7971
477.011961 86.021 70.2295
480.468586 88.208 71.2886
483.950259 90.277 58.9397
487.457163 91.565 39.8345
490.989478 91.848 18.3284
494.547390 91.317 1.5735
498.131084 90.596 -9.5483
501.740748 89.905 -23.1213
505.376568 88.784 -39.8621
509.038735 86.840 -54.4849
512.727439 84.236 -54.9390
516.442874 82.314 -20.4719
520.185232 82.196 -12.6938
523.954708 82.605 -24.0837
527.751500 83.320 -26.0078
531.575805 85.141 35.2373
535.427822 87.392 29.5728
539.307753 88.972 8.7451
543.215800 89.583 -12.0557
547.152165 89.420 -28.9065
551.117055 88.954 -39.7305
555.110677 88.724 -47.7083
559.133237 88.799 -58.5310
563.184947 88.762 -74.9548
567.266018 88.004 -97.1155
571.376661 86.159 -119.9045
575.517092 83.174 -135.8865
579.687526 79.554 -128.1938
583.888181 77.977 -115.5957
588.119275 80.169 25.8438
592.381030 82.578 0.5305
596.673667 83.876 -31.9856
600.997410 84.746 -59.0596
605.352485 85.617 -89.0315
609.739119 85.747 -131.1736
614.157540 84.476 177.8230
618.607979 81.769 128.0869
623.090667 78.954 94.3315
627.605839 79.714 122.6775
632.153730 82.757 137.0471
636.734576 84.981 103.4253
641.348617 85.806 69.6650
645.996094 85.560 48.5696
650.677248 85.436 44.5334
655.392323 86.158 39.5623
660.141566 87.052 27.9875
664.925224 87.468 15.1960
669.743546 87.521 4.4854
674.596784 87.051 -9.9961
679.485191 86.496 -5.6384
684.409020 87.628 23.2168
689.368530 89.713 18.6174
694.363979 91.307 2.7891
699.395626 92.150 -14.8362
704.463736 92.422 -30.8425
709.568570 92.258 -47.2241
714.710396 91.535 -63.6746
719.889483 90.325 -76.0696
725.106099 89.383 -73.0254
730.360516 89.822 -70.3076
735.653010 90.801 -87.9028
740.983855 90.848 -119.5312
746.353329 89.489 -160.2524
751.761713 87.458 110.6343
757.209288 85.878 -10.1572
762.696339 84.737 -44.7949
768.223151 83.666 -61.1318
773.790013 82.772 -66.5947
779.397214 82.298 -66.1372
785.045047 82.706 -55.1348
790.733808 84.239 -48.5386
796.463791 86.328 -51.3750
802.235296 88.433 -56.9976
808.048623 89.759 -75.2568
813.904077 90.017 -96.6846
819.801961 89.749 -111.4897
825.742584 89.546 -125.5361
831.726255 89.159 -144.9478
837.753287 88.232 -167.1123
843.823992 86.632 171.4009
849.938689 85.186 165.5088
856.097695 85.750 -164.8550
862.301332 87.408 177.8540
868.549922 88.516 141.8594
874.843793 88.924 103.5557
881.183272 88.807 64.7412
887.568689 88.150 29.8486
894.000378 87.735 6.2305
900.478673 87.913 -21.5708
907.003913 87.729 -54.1304
913.576437 87.182 -84.3198
920.196588 86.321 -117.0688
926.864712 84.874 -148.0293
933.581156 83.355 -179.7905
940.346270 82.631 151.9717
947.160407 83.877 135.4644
954.023921 85.601 94.0342
960.937172 86.338 43.9785
967.900519 86.659 2.1816
974.914325 87.789 -29.2368
981.978956 89.477 -69.5532
989.094780 90.573 -121.8623
996.262169 90.873 -176.8892
1003.481495 90.976 132.4883
1010.753136 90.982 86.3604
1018.077470 90.726 47.3486
1025.454879 90.484 14.5210
1032.885748 90.134 -17.6514
1040.370463 89.083 -49.3726
1047.909417 87.096 -74.6509
1055.503000 84.764 -85.6836
1063.151610 83.668 -85.1836
1070.855645 84.511 -103.7368
1078.615506 85.813 -145.3130
1086.431599 86.833 145.9678
1094.304330 87.323 43.3311
1102.234110 86.965 -43.3936
1110.221353 85.605 -108.1123
1118.266475 84.227 -156.8428
1126.369895 84.422 156.6675
1134.532035 85.087 109.2827
1142.753322 85.140 70.4272
1151.034184 85.178 48.9888
1159.375052 86.195 35.3501
1167.776361 87.371 12.2036
1176.238550 88.182 -12.2563
1184.762060 88.600 -38.6738
1193.347334 88.067 -68.3677
1201.994821 86.820 -94.9424
1210.704971 86.130 -125.7124
1219.478238 86.232 -178.2148
1228.315080 86.308 98.3589
1237.215957 86.385 48.2510
1246.181334 86.920 64.8394
1255.211678 87.286 22.5034
1264.307459 86.812 -16.6650
1273.469152 85.629 -43.8848
1282.697235 84.603 -60.6274
1291.992188 84.164 -78.4224
1301.354495 83.876 -100.9097
1310.784647 83.979 -123.7271
1320.283132 84.907 -157.3306
1329.850448 85.568 148.2446
1339.487093 85.087 87.3281
1349.193569 84.027 41.5220
1358.970381 83.870 15.3350
1368.818041 84.464 -13.1011
1378.737061 84.721 -29.7866
1388.727958 85.379 -12.3613
1398.791253 85.666 -41.5010
1408.927471 84.295 -70.4312
1419.137140 81.895 -58.9053
1429.420793 80.274 -65.6157
1439.778965 80.458 -90.3462
1450.212197 81.828 36.8662
1460.721033 83.435 5.3306
1471.306019 84.505 -26.3188
1481.967709 84.809 -55.3198
1492.706658 84.650 -88.5835
1503.523426 84.002 -124.0400
1514.418576 83.255 6.9697
1525.392678 82.974 -15.3081
1536.446302 83.179 -29.1797
1547.580025 83.734 -36.6328
1558.794428 84.831 -43.1465
1570.090095 85.425 -63.5737
1581.467615 85.599 -72.3574
1592.927581 86.091 -61.9692
1604.470591 85.812 -83.2480
1616.097246 84.094 -98.3013
1627.808153 82.689 -82.8486
1639.603922 82.935 -60.4048
1651.485168 83.479 -63.8184
1663.452510 83.443 -77.2925
1675.506573 83.367 -85.2651
1687.647984 83.040 -98.7578
1699.877377 81.972 -103.7847
1712.195390 81.147 -88.3613
1724.602663 81.977 -76.4077
1737.099845 82.991 -87.1558
1749.687587 83.374 -88.1787
1762.366544 84.617 -68.0361
1775.137379 85.922 -81.2573
1788.000756 86.113 -101.4355
1800.957346 86.205 -108.2944
1814.007826 87.392 -85.0825
1827.152874 88.708 -94.5479
1840.393177 89.143 -115.9731
1853.729425 88.837 -136.3760
1867.162312 87.497 -153.0591
1880.692540 85.489 -149.9497
1894.320813 84.701 -136.7563
1908.047843 85.543 -136.6343
1921.874344 86.864 -138.6543
1935.801038 88.155 -142.5962
1949.828650 88.815 -149.1997
1963.957912 88.943 -161.2290
1978.189561 88.004 -179.5547
1992.524338 86.716 176.3730
2006.962991 86.970 -167.9600
2021.506272 88.073 -156.8755
2036.154940 88.191 -167.4336
2050.909758 87.371 -168.7217
2065.771495 86.334 -168.7925
2080.740927 86.362 -158.4263
2095.818833 87.964 -153.7129
2111.006001 90.000 -158.7886
2126.303220 91.358 -172.9189
2141.711290 91.894 172.8740
2157.231013 91.679 159.7046
2172.863198 91.147 153.3726
2188.608660 90.998 148.4390
2204.468221 91.285 141.2632
2220.442706 91.684 130.5615
2236.532950 91.942 118.8364
2252.739789 91.818 102.9434
2269.064070 90.383 87.2314
2285.506644 87.997 88.1841
2302.068367 86.067 97.5703
2318.750104 84.811 104.5508
2335.552723 83.875 115.5952
2352.477101 84.044 131.3018
2369.524119 85.414 139.2559
2386.694668 87.159 136.9019
2403.989641 88.976 131.8901
2421.409941 90.491 120.8677
2438.956476 91.270 105.3770
2456.630160 91.414 90.7612
2474.431915 91.281 78.6777
2492.362668 91.113 64.9780
2510.423356 90.593 47.3252
2528.614918 89.129 33.5630
2546.938304 87.239 38.9019
2565.394469 85.801 41.0459
2583.984375 84.575 24.3589
2602.708991 84.474 154.0757
2621.569293 85.994 139.4863
2640.566265 87.890 119.9888
2659.700897 89.234 100.9609
2678.974186 89.833 82.2705
2698.387137 89.545 65.4995
2717.940763 88.721 57.1377
2737.636082 88.319 51.1074
2757.474121 87.936 35.1738
2777.455915 86.748 15.6758
2797.582506 84.801 2.6802
2817.854942 83.300 21.9287
2838.274281 83.258 73.4736
2858.841586 83.349 70.9756
2879.557931 83.421 68.6172
2900.424394 84.570 87.1421
2921.442065 86.455 81.0142
2942.612039 88.165 62.5718
2963.935418 88.902 36.4180
2985.413316 88.312 7.3120
3007.046852 86.140 -13.2310
3028.837153 83.052 -16.1348
3050.785356 80.696 -17.9302
3072.892604 80.202 -15.6621
3095.160050 80.333 -42.1006
3117.588856 80.675 169.6636
3140.180190 81.034 127.4458
3162.935230 81.714 115.1367
3185.855163 82.941 95.8960
3208.941182 83.691 72.1558
3232.194493 83.761 47.5488
3255.616307 83.032 18.0537
3279.207844 81.631 44.2554
3302.970336 80.657 111.7495
3326.905021 80.668 91.9712
3351.013146 80.777 73.1963
3375.295969 81.186 66.9277
3399.754755 82.446 124.7471
3424.390779 83.829 118.5601
3449.205326 84.415 99.3374
3474.199690 83.858 81.4199
3499.375173 83.412 88.9561
3524.733088 84.455 116.7046
3550.274757 85.519 101.4531
3576.001511 85.419 81.9429
3601.914692 84.537 82.0571
3628.015651 83.907 89.4829
3654.305748 83.800 84.2178
3680.786354 83.958 80.0938
3707.458849 84.370 80.9653
3734.324624 84.475 76.6875
3761.385080 84.367 76.2349
3788.641627 84.611 75.2085
3816.095686 84.863 69.6064
3843.748688 84.922 63.2812
3871.602076 84.900 58.8574
3899.657300 85.220 58.2163
3927.915825 85.722 56.1211
3956.379122 85.597 46.0928
3985.048676 84.562 38.3340
4013.925981 83.498 40.5649
4043.012544 83.089 42.3481
4072.309879 83.082 40.6694
4101.819515 83.263 36.3179
4131.542990 83.103 36.0371
4161.481854 82.619 41.3447
4191.637667 81.880 33.9600
4222.012001 80.786 31.7227
4252.606441 80.120 42.2168
4283.422580 80.501 62.9556
4314.462026 81.506 62.1284
4345.726396 81.921 52.3550
4377.217321 81.798 52.8965
4408.936442 82.174 56.0078
4440.885413 82.707 47.3057
4473.065899 82.316 33.6655
4505.479579 81.079 32.7163
4538.128141 80.744 51.7749
4571.013288 81.477 52.1992
4604.136735 81.908 43.1011
4637.500207 81.946 35.5576
4671.105446 82.338 32.2129
4704.954201 83.087 25.1162
4739.048239 82.968 1.1880
4773.389336 81.750 -18.1792
4807.979283 80.721 64.5537
4842.819883 80.182 52.1416
4877.912952 79.380 43.3271
4913.260320 79.412 66.7461
4948.863830 79.869 58.8223
4984.725337 79.386 40.9639
5020.846712 79.014 66.2720
5057.229836 79.937 100.6665
5093.876609 80.671 82.7246
5130.788938 80.477 68.8242
5167.968750 80.564 73.6030
5205.417982 80.927 67.3828
5243.138586 80.724 54.3027
5281.132530 80.438 54.1138
5319.401793 80.602 78.6479
5357.948371 80.818 78.7290
5396.774274 80.962 86.0488
5435.881525 81.029 83.2002
5475.272163 80.518 73.5190
5514.948243 79.962 72.1968
5554.911831 80.416 94.6089
5595.165012 81.562 108.7368
5635.709884 82.318 102.4502
5676.548561 82.890 99.9893
5717.683172 83.413 92.5996
5759.115861 83.429 83.3647
5800.848789 83.342 82.7666
5842.884130 83.826 88.8110
5885.224077 84.752 88.6665
5927.870837 85.559 83.6055
5970.826633 86.044 77.1138
6014.093704 86.077 69.4683
6057.674306 85.839 64.2349
6101.570711 85.896 66.4683
6145.785208 86.585 67.8018
6190.320101 87.105 61.2456
6235.177712 87.260 55.1172
6280.360380 87.212 47.8320
6325.870460 86.825 41.3164
6371.710325 86.441 42.3311
6417.882365 86.587 43.9287
6464.388986 86.874 38.7153
6511.232613 86.903 31.6489
6558.415689 86.605 24.7246
6605.940673 86.019 20.4736
6653.810042 85.618 22.9321
6702.026292 85.822 24.9453
6750.591937 86.082 20.0889
6799.509509 86.042 13.9224
6848.781558 85.709 6.5659
6898.410653 85.182 2.9692
6948.399380 84.750 4.0996
6998.750346 84.183 -0.4707
7049.466176 83.508 0.2939
7100.549514 83.140 -1.2500
7152.003023 83.003 -2.9424
7203.829385 83.246 -4.6846
7256.031302 83.189 -14.3022
7308.611496 82.364 -16.2173
7361.572708 81.224 -3.2432
7414.917698 80.241 -2.9463
7468.649249 79.443 2.6636
7522.770160 79.677 18.3027
7577.283253 80.503 51.3652
7632.191371 80.932 44.7012
7687.497376 80.843 41.6562
7743.204151 80.851 42.4263
7799.314600 81.624 54.2617
7855.831649 82.749 55.0303
7912.758244 82.993 43.2788
7970.097352 82.649 38.1816
8027.851962 82.410 42.7246
8086.025087 83.092 55.0327
8144.619758 84.262 52.4307
8203.639030 85.067 43.5181
8263.085980 85.471 35.3154
8322.963708 85.836 37.3618
8383.275334 86.471 39.2085
8444.024002 86.951 28.9473
8505.212881 86.972 17.3618
8566.845160 86.707 12.3130
8628.924051 86.843 16.0679
8691.452792 87.368 9.9463
8754.434642 87.511 -1.9644
8817.872884 86.814 -12.6865
8881.770826 85.766 -13.1895
8946.131799 85.272 -14.2769
9010.959157 85.100 -20.5806
9076.256282 84.665 -29.1685
9142.026576 83.889 -25.3320
9208.273470 83.636 -20.3052
9275.000415 83.503 -27.3340
9342.210891 82.819 -38.3428
9409.908403 81.874 -41.2202
9478.096478 80.947 -47.2314
9546.778672 79.532 -60.1890
9615.958566 78.212 -69.9048
9685.639765 78.049 66.3931
9755.825904 79.356 68.0688
9826.520640 80.752 54.0166
9897.727659 81.084 42.4395
9969.450674 81.292 41.9253
10041.693423 82.129 40.5435
10114.459673 83.125 32.9258
10187.753217 83.502 26.7261
10261.577877 83.826 27.7007
10335.937500 84.487 24.2100
10410.835964 84.758 12.4775
10486.277173 84.490 4.7124
10562.265060 84.445 1.9189
10638.803587 84.568 -5.8179
10715.896743 83.973 -16.1992
10793.548548 83.112 -13.6719
10871.763050 83.067 -9.9360
10950.544327 83.037 -20.3940
11029.896485 82.355 -27.6084
11109.823662 81.923 -28.2896
11190.330024 81.637 -37.7275
11271.419768 80.436 -49.7305
11353.097122 79.046 -36.4067
11435.366344 78.419 -19.0728
11518.231722 77.944 -6.0898
11601.697577 78.094 22.1133
11685.768261 78.799 23.7905
11770.448155 79.125 21.4263
11855.741674 79.574 20.0869
11941.653265 80.180 12.4590
12028.187408 80.242 2.9756
12115.348612 79.803 -0.5586
12203.141422 79.273 1.0200
12291.570415 78.796 3.6187
12380.640201 78.537 8.2427
12470.355424 78.696 14.8042
12560.720760 78.850 13.3647
12651.740920 78.928 13.5176
12743.420650 79.401 19.1514
12835.764729 80.159 20.2290
12928.777972 81.018 19.2119
13022.465227 81.892 15.9458
13116.831378 82.426 8.6089
13211.881345 82.490 0.2090
13307.620084 82.251 -4.1846
13404.052584 81.947 -8.7651
13501.183875 81.504 -6.7642
13599.019019 81.156 1.9458
13697.563116 81.132 1.9668
13796.821305 81.512 1.8799
13896.798760 81.895 -3.3286
13997.500692 81.903 -9.0801
14098.932352 81.876 -12.2817
14201.099028 81.799 -17.4980
14304.006046 81.464 -21.3457
14407.658770 80.983 -23.9600
14512.062604 80.482 -26.9263
14617.222992 80.047 -27.9136
14723.145416 79.755 -29.6294
14829.835397 79.377 -32.8330
14937.298497 78.985 -33.9062
15045.540320 78.541 -36.4790
15154.566507 77.935 -36.8096
15264.382743 77.585 -34.4243
15374.994752 77.420 -36.8687
15486.408302 77.152 -38.9409
15598.629201 76.869 -41.1958
15711.663298 76.588 -41.6235
15825.516487 76.525 -42.6582
15940.194703 76.293 -49.5005
16055.703925 75.738 -55.4082
16172.050174 74.816 -64.5596
16289.239516 73.246 -71.1719
16407.278061 71.416 -76.6138
16526.171961 69.473 -85.1050
16645.927415 69.007 -78.9814
16766.550667 71.086 72.5107
16888.048005 73.519 55.1816
17010.425762 75.599 41.2607
17133.690320 77.084 27.6992
17257.848103 77.730 14.0181
17382.905584 77.885 3.8003
17508.869284 77.752 -4.1147
17635.745768 77.608 -7.9067
17763.541652 77.520 -13.1504
17892.263597 77.277 -19.3545
18021.918315 76.748 -25.6426
18152.512564 75.989 -27.7930
18284.053153 75.297 -27.8828
18416.546939 74.601 -29.3667
18550.000830 73.805 -29.6895
18684.421783 73.144 -23.5947
18819.816805 73.131 -15.1772
18956.192956 73.620 -12.8599
19093.557344 74.228 -14.6924
19231.917131 74.710 -19.6914
19371.279531 74.837 -28.5664
19511.651807 74.385 -38.7939
19653.041280 73.468 -47.3818
19795.455318 72.393 -54.3755
19938.901348 71.588 -62.9619
