* Measurement data measured by REW V5.31.1
* Source: Scarlett 2i4 USB, MICROPHONE, R, volume: no control
* Format: 512k Log Swept Sine, 1 sweep at -18.0 dBFS with no timing reference
* Dated: May 7, 2024 4:04:19 PM
* REW Settings:
*  C-weighting compensation: Off
*  Target level: 75.0 dB
* Note: ; 
* Measurement: front-l12-r12-p1-c
* Smoothing: 1/48 octave
* Frequency Step: 96 ppo
* Start Frequency: 10.093689 Hz
*
* Freq(Hz) SPL(dB) Phase(degrees)
10.093689 44.917 0.6788
10.166832 45.157 0.6276
10.240505 45.447 0.4576
10.314712 45.746 0.1382
10.389457 46.046 -0.3592
10.464743 46.339 -1.0636
10.540575 46.621 -1.9686
10.616956 46.893 -3.0149
10.693891 47.144 -4.1509
10.771383 47.366 -5.3379
10.849437 47.559 -6.6639
10.928057 47.725 -8.1236
11.007246 47.861 -9.5973
11.087009 47.964 -10.9735
11.167350 48.029 -12.2684
11.248273 48.057 -13.6132
11.329783 48.053 -14.8735
11.411883 48.021 -15.8941
11.494578 47.958 -16.5866
11.577873 47.858 -17.0835
11.661771 47.741 -17.3082
11.746277 47.635 -17.1484
11.831395 47.547 -16.4908
11.917130 47.466 -15.3297
12.003487 47.423 -13.7697
12.090469 47.460 -11.9633
12.178081 47.607 -9.9471
12.266329 47.851 -7.6369
12.355216 48.179 -5.4353
12.444747 48.583 -3.7351
12.534926 49.072 -2.4988
12.625760 49.639 -1.5875
12.717251 50.237 -1.2359
12.809406 50.826 -1.5967
12.902228 51.412 -2.4867
12.995723 51.990 -3.7754
13.089895 52.537 -5.4468
13.184750 53.039 -7.5336
13.280292 53.500 -9.9963
13.376526 53.918 -12.6612
13.473458 54.288 -15.4217
13.571093 54.607 -18.4441
13.669434 54.876 -21.6506
13.768489 55.096 -24.8253
13.868261 55.266 -27.9517
13.968756 55.384 -31.2352
14.069979 55.454 -34.4606
14.171936 55.477 -37.4337
14.274632 55.451 -40.3716
14.378072 55.382 -43.2028
14.482261 55.277 -45.7113
14.587206 55.133 -47.9180
14.692910 54.959 -49.8784
14.799381 54.773 -51.4888
14.906624 54.580 -52.6336
15.014643 54.384 -53.3522
15.123446 54.216 -53.7331
15.233036 54.092 -53.7387
15.343421 54.010 -53.3207
15.454606 53.987 -52.7521
15.566596 54.035 -52.1578
15.679398 54.150 -51.4518
15.793018 54.315 -50.8901
15.907460 54.522 -50.6025
16.022732 54.768 -50.4972
16.138840 55.027 -50.6305
16.255788 55.287 -51.0422
16.373585 55.547 -51.6714
16.492234 55.795 -52.4261
16.611744 56.024 -53.3194
16.732119 56.238 -54.3155
16.853367 56.436 -55.2993
16.975494 56.617 -56.2961
17.098505 56.786 -57.2799
17.222408 56.947 -58.1875
17.347209 57.102 -59.0416
17.472914 57.254 -59.8385
17.599530 57.408 -60.5667
17.727063 57.562 -61.2358
17.855521 57.719 -61.8614
17.984909 57.879 -62.4452
18.115235 58.042 -62.9874
18.246506 58.205 -63.4948
18.378727 58.368 -63.9690
18.511907 58.532 -64.3876
18.646052 58.694 -64.7576
18.781169 58.856 -65.0616
18.917265 59.019 -65.2656
19.054347 59.181 -65.3860
19.192423 59.348 -65.3666
19.331499 59.521 -65.2090
19.471583 59.706 -64.8963
19.612682 59.911 -64.3875
19.754804 60.140 -63.7097
19.897956 60.409 -62.8818
20.042144 60.723 -61.8945
20.187378 61.093 -60.9109
20.333664 61.528 -59.9502
20.481010 62.021 -59.1557
20.629424 62.567 -58.7244
20.778913 63.156 -58.5974
20.929486 63.762 -59.0219
21.081150 64.374 -59.8726
21.233912 64.964 -61.1925
21.387782 65.521 -62.9652
21.542767 66.026 -64.9990
21.698874 66.468 -67.3256
21.856113 66.844 -69.7252
22.014492 67.149 -72.0901
22.174018 67.389 -74.3512
22.334700 67.574 -76.2339
22.496546 67.719 -77.7993
22.659566 67.859 -78.7998
22.823766 68.012 -79.3311
22.989157 68.225 -79.4562
23.155745 68.509 -79.2604
23.323542 68.880 -79.1688
23.492554 69.328 -79.1937
23.662790 69.817 -79.7477
23.834261 70.325 -80.7134
24.006973 70.803 -82.1563
24.180938 71.238 -83.9225
24.356163 71.606 -85.7508
24.532658 71.913 -87.5405
24.710431 72.175 -88.8922
24.889493 72.429 -89.8183
25.069853 72.726 -90.0423
25.251519 73.120 -89.9183
25.434502 73.659 -89.4926
25.618811 74.341 -89.5694
25.804456 75.153 -90.2304
25.991445 76.019 -92.1230
26.179790 76.895 -95.0175
26.369500 77.709 -99.0663
26.560584 78.435 -103.9255
26.753053 79.039 -109.5235
26.946917 79.508 -115.4706
27.142185 79.831 -121.8011
27.338869 80.008 -127.9625
27.536977 80.039 -134.0951
27.736522 79.936 -139.5937
27.937512 79.722 -144.5069
28.139959 79.429 -148.3895
28.343872 79.123 -151.2348
28.549264 78.864 -152.8761
28.756143 78.742 -153.7330
28.964522 78.783 -154.2217
29.174411 78.996 -154.9147
29.385821 79.308 -156.4169
29.598763 79.660 -158.7530
29.813248 79.970 -162.0043
30.029287 80.194 -165.7670
30.246891 80.307 -169.9375
30.466073 80.300 -174.0249
30.686842 80.187 -177.8281
30.909212 79.988 178.8680
31.133193 79.743 176.3220
31.358797 79.495 174.5007
31.586035 79.280 173.4404
31.814921 79.135 172.8946
32.045465 79.069 172.6989
32.277680 79.084 172.6933
32.511577 79.177 172.7268
32.747169 79.347 172.7194
32.984469 79.597 172.5674
33.223488 79.928 172.1208
33.464239 80.322 171.1159
33.706735 80.750 169.4474
33.950987 81.174 167.0344
34.197010 81.545 163.9243
34.444816 81.835 160.3654
34.694417 82.027 156.5640
34.945827 82.121 152.7884
35.199059 82.141 149.3756
35.454126 82.128 146.4210
35.711041 82.125 143.9259
35.969818 82.176 141.7570
36.230470 82.298 139.5093
36.493011 82.468 136.8585
36.757455 82.644 133.6511
37.023814 82.775 129.8524
37.292104 82.817 125.6158
37.562338 82.746 121.2921
37.834530 82.563 117.1876
38.108695 82.289 113.5692
38.384846 81.964 110.6579
38.662999 81.639 108.5293
38.943167 81.364 106.9893
39.225365 81.160 105.7172
39.509608 81.018 104.4162
39.795911 80.908 102.9005
40.084289 80.794 101.1454
40.374756 80.648 99.2766
40.667328 80.461 97.5034
40.962020 80.239 96.0174
41.258848 80.002 94.9476
41.557827 79.774 94.3638
41.858972 79.585 94.2725
42.162299 79.464 94.6024
42.467824 79.440 95.1830
42.775564 79.529 95.7377
43.085533 79.727 95.9259
43.397749 80.002 95.4460
43.712227 80.307 94.1406
44.028983 80.592 92.0359
44.348036 80.821 89.2930
44.669400 80.971 86.1344
44.993093 81.038 82.7815
45.319131 81.027 79.4150
45.647532 80.950 76.1605
45.978313 80.818 73.0923
46.311491 80.645 70.2520
46.647083 80.439 67.6668
46.985107 80.210 65.3572
47.325581 79.971 63.3287
47.668521 79.732 61.5565
48.013947 79.500 59.9810
48.361876 79.279 58.5281
48.712326 79.062 57.1448
49.065315 78.844 55.8284
49.420863 78.619 54.6225
49.778987 78.393 53.5795
50.139706 78.173 52.7126
50.503039 77.969 51.9731
50.869005 77.783 51.2736
51.237623 77.609 50.5444
51.608912 77.435 49.7791
51.982891 77.256 49.0268
52.359580 77.074 48.3376
52.739000 76.894 47.7112
53.121168 76.716 47.1009
53.506106 76.531 46.4808
53.893833 76.331 45.9102
54.284370 76.113 45.5341
54.677737 75.893 45.4977
55.073955 75.697 45.8197
55.473043 75.547 46.3442
55.875024 75.438 46.8490
56.279917 75.345 47.2343
56.687745 75.240 47.6306
57.098527 75.118 48.3740
57.512287 75.014 49.8492
57.929045 75.001 52.2645
58.348822 75.167 55.4505
58.771642 75.575 58.7768
59.197525 76.217 61.3794
59.626495 77.026 62.5892
60.058573 77.912 62.1371
60.493782 78.789 60.0366
60.932145 79.595 56.4652
61.373685 80.283 51.6703
61.818424 80.821 45.9509
62.266386 81.189 39.6810
62.717593 81.386 33.2341
63.172071 81.436 26.9920
63.629842 81.383 21.2469
64.090930 81.283 16.0773
64.555359 81.190 11.3411
65.023154 81.138 6.7225
65.494339 81.131 1.8951
65.968938 81.154 -3.3995
66.446976 81.187 -9.2935
66.928478 81.211 -15.8530
67.413469 81.213 -23.1382
67.901975 81.187 -31.2325
68.394021 81.124 -40.2307
68.889632 81.021 -50.2471
69.388835 80.879 -61.3694
69.891655 80.710 -73.7453
70.398118 80.539 -87.5173
70.908252 80.391 -102.8871
71.422083 80.284 -119.8855
71.939636 80.222 -138.3695
72.460941 80.188 -157.7175
72.986023 80.162 -177.1058
73.514909 80.132 164.5783
74.047629 80.132 148.2300
74.584208 80.246 134.3774
75.124676 80.572 122.7139
75.669061 81.127 112.2455
76.217390 81.817 101.8577
76.769692 82.514 91.1699
77.325997 83.141 80.3401
77.886333 83.689 69.6335
78.450730 84.165 58.9987
79.019216 84.548 48.2331
79.591822 84.793 37.3724
80.168577 84.874 26.8519
80.749512 84.832 17.2749
81.334656 84.770 8.9953
81.924040 84.802 1.6158
82.517696 84.963 -5.7728
83.115653 85.191 -13.9213
83.717943 85.384 -22.9559
84.324598 85.469 -32.4537
84.935649 85.433 -41.8162
85.551128 85.315 -50.5418
86.171066 85.192 -58.4246
86.795497 85.142 -65.6354
87.424453 85.216 -72.6091
88.057967 85.426 -79.9058
88.696071 85.733 -88.1744
89.338800 86.035 -97.9227
89.986185 86.194 -109.1165
90.638262 86.098 -121.0436
91.295065 85.706 -132.5283
91.956626 85.071 -142.2568
92.622982 84.365 -149.1422
93.294166 83.867 -153.0205
93.970214 83.825 -155.6677
94.651161 84.189 -160.0693
95.337042 84.643 -167.5529
96.027894 84.909 -177.1360
96.723752 84.898 172.8350
97.424652 84.654 163.4512
98.130631 84.248 155.0892
98.841726 83.740 147.9480
99.557974 83.196 142.2385
100.279412 82.686 137.8254
101.006078 82.255 134.4835
101.738010 81.953 132.3214
102.475245 81.849 130.8623
103.217823 81.916 128.7280
103.965782 82.015 125.5425
104.719161 82.082 122.3667
105.477999 82.191 119.9934
106.242336 82.446 117.9847
107.012212 82.867 115.3530
107.787666 83.389 111.3577
108.568740 83.895 105.6108
109.355474 84.258 98.2122
110.147909 84.384 89.9042
110.946086 84.267 81.8329
111.750047 83.995 74.6904
112.559834 83.658 67.9153
113.375489 83.228 60.4407
114.197055 82.585 52.2207
115.024574 81.635 44.2886
115.858089 80.376 37.7716
116.697645 78.849 33.1078
117.543284 77.066 30.7628
118.395051 75.079 33.6309
119.252990 73.327 46.5530
120.117147 72.643 65.2783
120.987565 73.090 77.3169
121.864291 73.867 81.9208
122.747370 74.554 84.4417
123.636848 75.251 87.7529
124.532771 76.062 89.8362
125.435187 76.873 89.0938
126.344142 77.558 85.9534
127.259684 77.998 80.4055
128.181860 78.045 72.9167
129.110718 77.582 64.8118
130.046308 76.531 57.4709
130.988677 74.938 54.5065
131.937875 73.754 71.2657
132.893951 75.030 117.5670
133.856956 77.886 130.6931
134.826938 80.461 125.2625
135.803950 82.314 114.3773
136.788041 83.480 101.9670
137.779264 84.072 89.8894
138.777669 84.251 79.5178
139.783309 84.216 71.2349
140.796237 84.088 63.8948
141.816504 83.831 56.5579
142.844165 83.372 49.7642
143.879273 82.731 44.8096
144.921881 82.052 42.4150
145.972045 81.496 41.5828
147.029819 81.119 41.1128
148.095257 80.954 41.2098
149.168417 81.074 41.4121
150.249353 81.446 39.6390
151.338121 81.891 34.9041
152.434780 82.267 27.7086
153.539385 82.483 17.8782
154.651995 82.426 4.9769
155.772667 82.005 -10.8752
156.901460 81.219 -29.8184
158.038432 80.188 -52.9734
159.183644 79.218 -82.0630
160.337154 78.813 -116.4065
161.499023 79.288 -149.8239
162.669312 80.315 -177.2164
163.848081 81.398 161.4723
165.035392 82.322 145.1501
166.231306 83.077 132.6301
167.435887 83.684 122.6892
168.649196 84.173 114.7504
169.871298 84.602 108.4968
171.102255 85.037 103.6476
172.342133 85.531 99.6810
173.590995 86.058 95.5249
174.848907 86.532 90.7969
176.115934 86.954 86.8004
177.392143 87.460 84.1583
178.677599 88.118 81.2028
179.972371 88.835 76.5548
181.276525 89.470 70.0975
182.590129 89.908 62.1415
183.913252 90.056 53.2188
185.245964 89.837 44.0538
186.588332 89.204 35.8833
187.940428 88.204 31.0449
189.302322 87.136 32.4080
190.674085 86.581 40.1250
192.055788 86.920 47.9825
193.447503 87.898 51.6198
194.849303 89.122 51.7683
196.261262 90.345 48.6525
197.683452 91.375 42.1979
199.115948 92.094 33.6483
200.558824 92.513 24.7670
202.012156 92.724 16.2661
203.476019 92.767 7.5005
204.950490 92.571 -2.0966
206.435646 92.024 -11.8743
207.931564 91.083 -19.9515
209.438322 89.856 -24.1942
210.955998 88.610 -23.8103
212.484672 87.667 -20.1722
214.024424 87.233 -15.3518
215.575333 87.374 -10.3517
217.137481 88.053 -6.3300
218.710948 89.052 -5.8049
220.295818 90.017 -10.1904
221.892172 90.686 -17.9127
223.500094 90.998 -26.5884
225.119668 91.006 -35.0552
226.750978 90.772 -43.0629
228.394109 90.334 -50.4431
230.049147 89.723 -56.8704
231.716178 88.984 -62.0341
233.395289 88.192 -65.4880
235.086567 87.512 -66.4952
236.790102 87.199 -65.5134
238.505980 87.334 -66.2218
240.234293 87.618 -71.7753
241.975130 87.651 -81.4846
243.728581 87.197 -93.2128
245.494739 86.164 -104.8905
247.273695 84.556 -114.2938
249.065542 82.468 -119.8245
250.870374 80.024 -121.4319
252.688284 77.329 -118.2026
254.519367 74.760 -102.6372
256.363720 73.609 -65.6390
258.221437 74.443 -45.2961
260.092616 75.848 -42.2239
261.977354 77.342 -38.4192
263.875750 79.109 -32.2991
265.787903 80.718 -35.7184
267.713911 81.561 -47.3618
269.653877 81.519 -58.5275
271.607900 81.033 -61.9731
273.576083 80.916 -58.0118
275.558528 81.598 -54.6196
277.555338 82.808 -55.1914
279.566619 84.060 -61.2896
281.592474 84.969 -72.4556
283.633009 85.355 -86.2825
285.688331 85.182 -100.7643
287.758546 84.490 -114.2672
289.843763 83.367 -125.6406
291.944090 81.916 -134.5548
294.059638 80.251 -140.0426
296.190515 78.568 -141.8140
298.336833 76.992 -143.6274
300.498705 75.444 -143.7661
302.676243 74.360 -130.5226
304.869559 74.628 -115.6115
307.078770 75.816 -114.5889
309.303989 77.172 -119.2955
311.545334 78.437 -127.7277
313.802919 79.323 -142.0504
316.076865 79.469 -161.0941
318.367288 78.703 -179.8833
320.674309 77.256 168.5979
322.998047 76.185 171.3215
325.338624 76.852 178.2286
327.696162 78.589 171.8105
330.070783 80.082 154.5728
332.462612 80.888 133.1975
334.871773 81.004 111.7407
337.298392 80.547 92.7922
339.742595 79.837 79.6769
342.204510 79.538 73.7214
344.684265 79.996 67.4290
347.181989 80.590 54.1239
349.697813 80.662 37.2622
352.231868 80.071 22.0214
354.784285 79.035 11.5028
357.355198 78.119 9.0425
359.944741 78.244 13.4951
362.553049 79.445 12.5184
365.180258 80.638 -0.3553
367.826505 81.090 -19.5978
370.491927 80.810 -37.5447
373.176665 80.344 -51.1993
375.880856 80.211 -65.8718
378.604644 80.361 -86.2188
381.348169 80.535 -112.3435
384.111575 80.589 -143.5557
386.895006 80.482 -177.5244
389.698607 80.349 149.8896
392.522524 80.389 120.9424
395.366904 80.479 94.0168
398.231895 80.164 68.0679
401.117648 79.104 46.4226
404.024312 77.458 36.6917
406.952038 75.977 36.8628
409.900981 75.120 35.2908
412.871292 75.122 42.3872
415.863128 76.386 55.3643
418.876643 78.003 52.7542
421.911996 79.038 41.5913
424.969344 79.569 33.1030
428.048847 80.167 30.1033
431.150666 80.822 22.9143
434.274961 80.932 10.1687
437.421897 80.350 0.9280
440.591636 79.875 5.0706
443.784345 80.542 14.3931
447.000189 81.872 11.6086
450.239337 83.009 1.9924
453.501956 83.717 -9.8147
456.788219 83.951 -23.1223
460.098294 83.545 -38.1558
463.432356 82.450 -49.4766
466.790578 81.515 -43.5249
470.173135 82.256 -28.2708
473.580203 83.996 -32.9673
477.011961 85.435 -48.6001
480.468586 86.323 -67.6211
483.950259 86.630 -89.8162
487.457163 86.198 -114.9480
490.989478 84.893 -140.1851
494.547390 82.828 -163.0410
498.131084 80.339 172.5234
501.740748 77.900 137.6375
505.376568 76.638 -7.8020
509.038735 77.467 -73.8350
512.727439 79.656 -101.6052
516.442874 82.312 -123.0354
520.185232 84.573 -150.3589
523.954708 85.912 176.6770
527.751500 86.140 142.5459
531.575805 85.210 112.2280
535.427822 83.449 92.4194
539.307753 82.235 91.9421
543.215800 83.379 104.9756
547.152165 85.501 95.2275
551.117055 86.847 71.3726
555.110677 87.090 45.4167
559.133237 86.387 21.7231
563.184947 84.883 0.1316
567.266018 82.607 -15.6851
571.376661 80.443 6.2739
575.517092 80.628 43.6924
579.687526 82.284 34.6338
583.888181 83.493 16.2666
588.119275 83.690 -6.1924
592.381030 82.594 -29.4148
596.673667 80.138 -44.2854
600.997410 76.965 -24.3152
605.352485 75.420 23.2935
609.739119 76.703 33.4783
614.157540 78.934 35.2700
618.607979 81.331 35.6289
623.090667 83.530 29.0503
627.605839 85.205 16.3447
632.153730 86.245 0.7588
636.734576 86.718 -14.8284
641.348617 86.976 -27.2424
645.996094 87.508 -37.4819
650.677248 88.250 -52.2720
655.392323 88.624 -73.7500
660.141566 88.243 -98.5151
664.925224 87.037 -123.0779
669.743546 85.156 -144.3342
674.596784 83.042 -161.1890
679.485191 81.360 -177.2434
684.409020 80.517 164.2063
689.368530 80.453 143.3730
694.363979 80.897 121.7551
699.395626 81.667 101.1956
704.463736 82.361 78.8857
709.568570 82.330 54.6628
714.710396 81.499 40.5210
719.889483 81.172 52.1536
725.106099 82.015 51.1194
730.360516 83.025 40.7034
735.653010 84.299 35.4568
740.983855 85.933 28.0200
746.353329 87.294 12.7029
751.761713 87.841 -7.9795
757.209288 87.388 -29.2676
762.696339 85.978 -46.1316
768.223151 84.051 -52.5444
773.790013 82.736 -50.7246
779.397214 82.905 -48.7769
785.045047 83.495 -64.0010
790.733808 82.963 -93.8684
796.463791 81.114 -131.9915
802.235296 79.354 143.8801
808.048623 80.054 65.8220
813.904077 82.400 38.2300
819.801961 84.364 14.6885
825.742584 85.506 -7.4719
831.726255 86.131 -27.4604
837.753287 86.074 -50.2776
843.823992 85.056 -70.9312
849.938689 83.604 -84.7056
856.097695 82.251 -107.3823
862.301332 80.775 -149.8789
868.549922 80.117 90.4707
874.843793 81.400 35.2490
881.183272 83.251 8.3984
887.568689 84.198 -16.0723
894.000378 84.369 -32.5010
900.478673 84.700 -42.2021
907.003913 85.301 -55.2002
913.576437 85.494 -74.1587
920.196588 84.880 -94.5225
926.864712 83.597 -111.0708
933.581156 82.112 -129.0591
940.346270 80.219 -156.1094
947.160407 77.809 164.2456
954.023921 76.044 84.7471
960.937172 76.286 25.9766
967.900519 77.620 -3.3794
974.914325 78.288 -28.8262
981.978956 78.279 -32.5073
989.094780 79.015 -7.7329
996.262169 80.176 -17.8428
1003.481495 80.870 -32.7236
1010.753136 81.052 -45.5752
1018.077470 81.147 -48.4854
1025.454879 81.860 -47.4736
1032.885748 82.895 -55.8447
1040.370463 84.542 -59.6709
1047.909417 86.405 -74.2534
1055.503000 87.105 -106.2671
1063.151610 86.064 -144.9536
1070.855645 83.453 177.6597
1078.615506 79.981 -44.2632
1086.431599 77.553 -47.1416
1094.304330 78.315 -48.6797
1102.234110 79.918 -64.9644
1110.221353 80.563 -77.6558
1118.266475 80.972 -76.0278
1126.369895 81.497 -91.8965
1134.532035 81.282 -112.6914
1142.753322 80.742 -120.4390
1151.034184 80.408 -138.9468
1159.375052 79.320 -171.2407
1167.776361 77.598 146.8716
1176.238550 76.052 58.8706
1184.762060 74.940 -20.2412
1193.347334 75.006 -49.6167
1201.994821 75.537 -81.2285
1210.704971 75.633 -16.3906
1219.478238 76.708 7.8584
1228.315080 78.642 -15.5107
1237.215957 79.875 -40.9248
1246.181334 80.187 -63.2529
1255.211678 79.770 -83.0659
1264.307459 78.638 -98.8389
1273.469152 77.124 -105.9160
1282.697235 75.947 -108.3394
1291.992188 75.475 -109.7300
1301.354495 75.058 -120.9248
1310.784647 73.643 -133.7974
1320.283132 71.729 -134.4399
1329.850448 70.265 -114.3828
1339.487093 69.081 -107.2358
1349.193569 69.087 -93.0186
1358.970381 71.688 -74.6104
1368.818041 74.587 -88.1479
1378.737061 76.188 -124.9595
1388.727958 76.596 -176.4702
1398.791253 76.738 119.5493
1408.927471 77.310 61.7642
1419.137140 78.020 18.5493
1429.420793 77.855 -15.2769
1439.778965 76.812 -34.1523
1450.212197 76.205 -40.4780
1460.721033 77.011 -35.8965
1471.306019 78.623 -39.3584
1481.967709 79.319 -60.3921
1492.706658 78.831 -76.1509
1503.523426 78.225 -84.6235
1514.418576 77.833 -98.9834
1525.392678 77.021 -117.4761
1536.446302 75.490 -129.1782
1547.580025 74.073 -119.0835
1558.794428 74.732 -119.0132
1570.090095 77.165 -134.3540
1581.467615 79.670 -167.7437
1592.927581 81.345 141.0894
1604.470591 82.368 90.0718
1616.097246 82.695 47.2349
1627.808153 82.706 18.8008
1639.603922 83.062 -4.1562
1651.485168 82.798 -30.5225
1663.452510 81.587 -43.2085
1675.506573 81.000 -42.4795
1687.647984 81.647 -50.6909
1699.877377 82.702 -66.3442
1712.195390 83.099 -93.0815
1724.602663 82.296 -126.4365
1737.099845 80.482 -163.8213
1749.687587 79.241 144.2500
1762.366544 79.992 68.0557
1775.137379 81.417 32.4604
1788.000756 83.139 32.6865
1800.957346 84.252 9.5933
1814.007826 85.140 -2.4746
1827.152874 86.352 -20.4673
1840.393177 86.438 -48.7998
1853.729425 85.276 -72.5269
1867.162312 83.827 -86.5386
1880.692540 83.522 -45.8374
1894.320813 84.724 -43.9644
1908.047843 85.593 -66.7998
1921.874344 85.424 -86.2070
1935.801038 84.640 -105.0283
1949.828650 83.302 -114.7808
1963.957912 81.699 -119.1821
1978.189561 80.624 -30.8218
1992.524338 82.316 -9.9561
2006.962991 85.450 -21.4780
2021.506272 87.673 -43.6064
2036.154940 88.305 -70.3101
2050.909758 87.694 -91.7251
2065.771495 86.670 -94.3940
2080.740927 86.455 -83.5781
2095.818833 87.042 -89.7266
2111.006001 87.981 -101.8794
2126.303220 88.702 -120.5688
2141.711290 88.925 -145.1460
2157.231013 88.095 -177.6392
2172.863198 86.580 146.3691
2188.608660 86.653 -4.4272
2204.468221 87.587 -54.6289
2220.442706 87.697 -84.9771
2236.532950 87.601 -100.8989
2252.739789 88.123 -99.1655
2269.064070 89.307 -106.8652
2285.506644 90.472 -126.2773
2302.068367 90.810 -152.9751
2318.750104 89.819 179.7588
2335.552723 88.230 158.6289
2352.477101 86.788 175.4277
2369.524119 85.989 -166.8921
2386.694668 85.492 -127.5542
2403.989641 84.818 -114.7119
2421.409941 84.813 -105.4634
2438.956476 86.210 -103.1841
2456.630160 87.328 -120.3940
2474.431915 87.685 -137.3218
2492.362668 87.389 -157.8540
2510.423356 86.104 -176.7378
2528.614918 84.074 177.0186
2546.938304 82.339 -179.6592
2565.394469 81.401 178.5039
2583.984375 80.636 171.8442
2602.708991 79.402 163.4639
2621.569293 78.999 -145.7729
2640.566265 81.143 -101.5479
2659.700897 83.760 -113.9561
2678.974186 85.161 -136.6001
2698.387137 85.191 -153.5015
2717.940763 84.592 -161.4609
2737.636082 84.143 -167.5146
2757.474121 83.775 -179.5972
2777.455915 83.090 163.9819
2797.582506 81.732 144.8154
2817.854942 80.441 140.4805
2838.274281 80.938 -118.2715
2858.841586 82.279 -120.9873
2879.557931 83.522 -134.5791
2900.424394 84.975 -140.9014
2921.442065 86.113 -153.4136
2942.612039 86.260 -174.4609
2963.935418 85.554 164.5337
2985.413316 84.323 142.7568
3007.046852 83.008 155.1177
3028.837153 82.817 -147.9448
3050.785356 82.511 -162.8394
3072.892604 81.821 -161.4663
3095.160050 82.465 -159.1597
3117.588856 83.459 -160.5737
3140.180190 83.437 -171.3979
3162.935230 82.313 175.2153
3185.855163 80.866 169.4141
3208.941182 79.904 164.0981
3232.194493 79.171 163.8999
3255.616307 79.116 -150.2637
3279.207844 80.864 -132.3027
3302.970336 82.847 -142.6226
3326.905021 83.738 -163.4175
3351.013146 83.390 176.0347
3375.295969 82.179 162.2251
3399.754755 81.393 161.4385
3424.390779 81.767 161.8691
3449.205326 82.380 -144.7383
3474.199690 82.996 -141.2373
3499.375173 83.611 -142.0537
3524.733088 84.553 -153.2358
3550.274757 84.638 -174.0059
3576.001511 83.592 168.6938
3601.914692 82.051 158.3110
3628.015651 81.581 -179.1323
3654.305748 82.376 -141.1421
3680.786354 82.805 -153.6685
3707.458849 83.132 -159.5542
3734.324624 84.491 -150.9897
3761.385080 85.832 -165.0493
3788.641627 85.541 171.9814
3816.095686 83.794 160.7061
3843.748688 81.920 168.1782
3871.602076 81.803 -172.1821
3899.657300 83.634 -155.2065
3927.915825 85.693 -160.4233
3956.379122 86.580 179.4033
3985.048676 86.220 161.6201
4013.925981 85.054 162.6074
4043.012544 83.882 169.8511
4072.309879 83.057 164.7695
4101.819515 83.161 -166.2588
4131.542990 84.184 -165.0034
4161.481854 84.634 178.2544
4191.637667 84.271 161.9824
4222.012001 83.174 149.9941
4252.606441 81.962 157.8906
4283.422580 82.061 -171.7617
4314.462026 83.512 -161.8086
4345.726396 84.553 -176.3857
4377.217321 84.945 171.8296
4408.936442 84.841 160.6494
4440.885413 83.745 151.9590
4473.065899 82.648 163.7334
4505.479579 83.097 -177.6113
4538.128141 84.311 -178.1758
4571.013288 84.866 166.2881
4604.136735 84.245 149.8975
4637.500207 82.533 149.3633
4671.105446 81.681 175.7969
4704.954201 82.602 -179.5449
4739.048239 83.656 172.7358
4773.389336 83.859 160.0972
4807.979283 82.959 150.6763
4842.819883 81.735 155.2871
4877.912952 81.452 168.1694
4913.260320 81.909 168.9331
4948.863830 82.619 168.7188
4984.725337 83.183 164.2495
5020.846712 82.847 153.9087
5057.229836 81.815 150.9014
5093.876609 81.350 159.8457
5130.788938 82.371 171.9136
5167.968750 83.730 168.8125
5205.417982 83.851 154.3433
5243.138586 82.761 147.5796
5281.132530 81.601 150.6729
5319.401793 81.329 159.2358
5357.948371 81.726 166.6519
5396.774274 82.047 162.7383
5435.881525 82.008 155.5723
5475.272163 81.661 149.9551
5514.948243 81.261 153.2646
5554.911831 81.382 166.3848
5595.165012 81.936 164.5854
5635.709884 81.812 154.4395
5676.548561 81.051 155.2051
5717.683172 80.758 163.0396
5759.115861 81.316 176.5947
5800.848789 82.064 173.8613
5842.884130 82.534 164.8188
5885.224077 82.718 156.9253
5927.870837 82.677 160.5913
5970.826633 82.942 172.9849
6014.093704 83.186 162.3696
6057.674306 82.925 153.7969
6101.570711 82.667 152.5669
6145.785208 82.670 165.7334
6190.320101 83.259 175.8096
6235.177712 83.330 162.7871
6280.360380 82.465 150.7886
6325.870460 81.346 151.7119
6371.710325 81.312 -177.2598
6417.882365 82.474 -174.8062
6464.388986 83.417 173.0903
6511.232613 83.342 164.7104
6558.415689 83.199 -176.6797
6605.940673 83.750 -177.4448
6653.810042 83.828 168.9688
6702.026292 83.207 164.0757
6750.591937 82.987 169.8105
6799.509509 83.745 -177.8218
6848.781558 84.514 176.5166
6898.410653 84.325 165.6245
6948.399380 83.874 170.3560
6998.750346 84.192 -178.7412
7049.466176 84.803 176.8574
7100.549514 84.879 165.3130
7152.003023 84.419 164.4209
7203.829385 84.431 178.3086
7256.031302 84.738 174.4199
7308.611496 84.662 168.0332
7361.572708 84.334 164.0215
7414.917698 84.262 168.4194
7468.649249 84.676 167.8340
7522.770160 84.688 160.5015
7577.283253 84.519 164.8975
7632.191371 84.969 169.9590
7687.497376 85.441 162.9502
7743.204151 85.086 152.1729
7799.314600 84.195 154.3716
7855.831649 83.921 160.7061
7912.758244 83.962 157.1343
7970.097352 83.625 153.2280
8027.851962 83.451 163.2324
8086.025087 83.892 165.5566
8144.619758 83.793 157.2715
8203.639030 82.979 161.8633
8263.085980 82.872 172.0366
8322.963708 83.226 168.9971
8383.275334 83.083 167.2437
8444.024002 83.099 175.4521
8505.212881 83.525 176.0923
8566.845160 83.549 171.5503
8628.924051 83.553 175.8848
8691.452792 84.150 179.0830
8754.434642 84.606 173.4609
8817.872884 84.504 170.7866
8881.770826 84.514 173.5684
8946.131799 84.573 171.5962
9010.959157 84.493 171.5386
9076.256282 84.679 174.9624
9142.026576 85.137 173.9746
9208.273470 85.393 170.2534
9275.000415 85.334 167.2441
9342.210891 85.011 165.8926
9409.908403 84.755 166.1987
9478.096478 84.751 167.5435
9546.778672 84.914 167.1777
9615.958566 84.957 164.3311
9685.639765 84.851 162.4897
9755.825904 84.801 161.9551
9826.520640 84.798 162.0957
9897.727659 84.704 161.3198
9969.450674 84.337 158.9072
10041.693423 83.842 159.2651
10114.459673 83.566 161.9204
10187.753217 83.495 164.5054
10261.577877 83.592 171.0381
10335.937500 83.741 170.7456
10410.835964 83.701 169.1763
10486.277173 83.769 172.2036
10562.265060 84.163 173.3569
10638.803587 84.437 170.4888
10715.896743 84.482 167.7300
10793.548548 84.368 164.8950
10871.763050 84.242 165.2417
10950.544327 84.178 162.9419
11029.896485 83.811 158.5161
11109.823662 83.168 157.7036
11190.330024 82.653 160.2739
11271.419768 82.349 163.3286
11353.097122 82.072 165.4238
11435.366344 81.735 166.5435
11518.231722 81.515 169.6929
11601.697577 81.691 173.8477
11685.768261 81.933 174.9307
11770.448155 81.964 177.8677
11855.741674 82.020 178.2251
11941.653265 82.120 -179.1694
12028.187408 82.402 -178.5361
12115.348612 82.468 179.5029
12203.141422 82.465 -179.2451
12291.570415 82.380 178.5107
12380.640201 82.083 179.8838
12470.355424 81.929 -177.8149
12560.720760 81.930 -175.7427
12651.740920 82.151 -173.4912
12743.420650 82.410 -171.5342
12835.764729 82.846 -169.1328
12928.777972 83.132 -172.4111
13022.465227 83.283 -172.3584
13116.831378 83.335 -175.9927
13211.881345 83.145 -179.3716
13307.620084 82.825 176.9111
13404.052584 82.210 177.2549
13501.183875 81.751 -178.0942
13599.019019 81.468 -175.9131
13697.563116 81.311 -171.8901
13796.821305 81.439 -166.6030
13896.798760 82.118 -162.0723
13997.500692 82.612 -165.7163
14098.932352 82.801 -167.3496
14201.099028 82.854 -171.2266
14304.006046 82.738 -174.4536
14407.658770 82.175 -178.7764
14512.062604 81.471 -177.0303
14617.222992 81.068 -176.5791
14723.145416 80.779 -177.5308
14829.835397 80.331 -177.8608
14937.298497 80.053 -175.2920
15045.540320 79.844 -176.4287
15154.566507 79.541 -176.0903
15264.382743 79.276 -174.7446
15374.994752 79.046 -175.6987
15486.408302 78.659 -177.0347
15598.629201 78.288 -176.1245
15711.663298 78.006 -175.7012
15825.516487 77.564 -176.4663
15940.194703 77.061 -174.0967
16055.703925 76.814 -171.7329
16172.050174 76.669 -171.9370
16289.239516 76.430 -172.5083
16407.278061 76.143 -172.9995
16526.171961 75.832 -173.7236
16645.927415 75.434 -175.1821
16766.550667 74.834 -176.6592
16888.048005 73.900 -176.6963
17010.425762 72.743 -174.6152
17133.690320 71.737 -166.7051
17257.848103 71.451 -153.7407
17382.905584 71.724 -147.1147
17508.869284 72.045 -142.9150
17635.745768 72.480 -139.5508
17763.541652 72.957 -138.8428
17892.263597 73.338 -139.6450
18021.918315 73.550 -142.6484
18152.512564 73.315 -148.0957
18284.053153 72.674 -151.1523
18416.546939 71.906 -152.4585
18550.000830 70.923 -153.3418
18684.421783 69.879 -150.6426
18819.816805 68.988 -148.3569
18956.192956 68.223 -143.1455
19093.557344 67.746 -138.1060
19231.917131 67.296 -137.4556
19371.279531 66.703 -135.7993
19511.651807 66.012 -137.6821
19653.041280 64.977 -140.9731
19795.455318 63.694 -141.6890
19938.901348 62.686 -142.1768
