* Measurement data measured by REW V5.31.1
* Source: Scarlett 2i4 USB, MICROPHONE, R, volume: no control
* Format: 512k Log Swept Sine, 1 sweep at -18.0 dBFS with no timing reference
* Dated: May 7, 2024 2:47:29 PM
* REW Settings:
*  C-weighting compensation: Off
*  Target level: 75.0 dB
* Note: ; 
* Measurement: front-frames-p1-c
* Smoothing: 1/48 octave
* Frequency Step: 96 ppo
* Start Frequency: 10.093689 Hz
*
* Freq(Hz) SPL(dB) Phase(degrees)
10.093689 43.492 52.1596
10.166832 43.645 50.1474
10.240505 43.832 48.2672
10.314712 44.025 46.4866
10.389457 44.225 44.7793
10.464743 44.448 43.1380
10.540575 44.706 41.6237
10.616956 44.989 40.2021
10.693891 45.292 38.8246
10.771383 45.614 37.4491
10.849437 45.954 36.1316
10.928057 46.315 34.8847
11.007246 46.692 33.6440
11.087009 47.084 32.3535
11.167350 47.490 31.0328
11.248273 47.911 29.7536
11.329783 48.345 28.4422
11.411883 48.788 27.0307
11.494578 49.239 25.5145
11.577873 49.699 23.9987
11.661771 50.165 22.4170
11.746277 50.633 20.6972
11.831395 51.100 18.8219
11.917130 51.568 16.8969
12.003487 52.034 14.8807
12.090469 52.491 12.7143
12.178081 52.939 10.3759
12.266329 53.377 7.9393
12.355216 53.803 5.4032
12.444747 54.210 2.7406
12.534926 54.598 -0.0903
12.625760 54.967 -3.0508
12.717251 55.312 -6.0873
12.809406 55.629 -9.1927
12.902228 55.918 -12.4822
12.995723 56.177 -15.8853
13.089895 56.402 -19.2959
13.184750 56.591 -22.7334
13.280292 56.742 -26.3621
13.376526 56.854 -30.0236
13.473458 56.921 -33.5656
13.571093 56.944 -37.1913
13.669434 56.919 -40.9050
13.768489 56.843 -44.4867
13.868261 56.712 -47.8753
13.968756 56.527 -51.3135
14.069979 56.283 -54.6087
14.171936 55.978 -57.5159
14.274632 55.607 -60.1929
14.378072 55.178 -62.5825
14.482261 54.696 -64.4311
14.587206 54.148 -65.5747
14.692910 53.563 -66.0019
14.799381 52.998 -65.6355
14.906624 52.463 -64.1633
15.014643 51.983 -61.4731
15.123446 51.659 -58.0582
15.233036 51.566 -54.2044
15.343421 51.680 -49.9683
15.454606 51.951 -46.3039
15.566596 52.366 -43.6880
15.679398 52.908 -41.8952
15.793018 53.475 -41.0448
15.907460 54.006 -41.1595
16.022732 54.511 -42.0102
16.138840 54.962 -43.2819
16.255788 55.341 -44.9564
16.373585 55.653 -47.0005
16.492234 55.904 -49.0396
16.611744 56.089 -51.1184
16.732119 56.218 -53.2383
16.853367 56.304 -55.1035
16.975494 56.348 -56.7763
17.098505 56.365 -58.2474
17.222408 56.375 -59.3767
17.347209 56.379 -60.1813
17.472914 56.397 -60.7362
17.599530 56.445 -61.0366
17.727063 56.523 -61.0880
17.855521 56.638 -61.0802
17.984909 56.793 -61.0030
18.115235 56.980 -60.9104
18.246506 57.189 -60.9223
18.378727 57.419 -61.0041
18.511907 57.657 -61.1407
18.646052 57.895 -61.3595
18.781169 58.132 -61.5991
18.917265 58.364 -61.7732
19.054347 58.592 -61.9135
19.192423 58.824 -61.9126
19.331499 59.063 -61.7518
19.471583 59.320 -61.4446
19.612682 59.607 -60.9581
19.754804 59.929 -60.3287
19.897956 60.298 -59.6725
20.042144 60.720 -58.9601
20.187378 61.192 -58.4044
20.333664 61.714 -58.0357
20.481010 62.275 -57.9318
20.629424 62.860 -58.2557
20.778913 63.460 -58.9052
20.929486 64.050 -60.0173
21.081150 64.624 -61.5002
21.233912 65.159 -63.3009
21.387782 65.649 -65.4399
21.542767 66.082 -67.7053
21.698874 66.451 -70.1252
21.856113 66.755 -72.5103
22.014492 66.992 -74.7325
22.174018 67.172 -76.7522
22.334700 67.309 -78.2970
22.496546 67.423 -79.4366
22.659566 67.551 -79.9815
22.823766 67.715 -80.0318
22.989157 67.960 -79.7673
23.155745 68.294 -79.2790
23.323542 68.718 -79.0775
23.492554 69.217 -79.1457
23.662790 69.741 -79.8727
23.834261 70.266 -81.1025
24.006973 70.743 -82.8288
24.180938 71.156 -84.8911
24.356163 71.485 -86.9589
24.532658 71.738 -88.9375
24.710431 71.932 -90.3556
24.889493 72.110 -91.2210
25.069853 72.335 -91.1937
25.251519 72.672 -90.6658
25.434502 73.182 -89.7065
25.618811 73.865 -89.2728
25.804456 74.703 -89.5016
25.991445 75.604 -91.1285
26.179790 76.516 -93.8873
26.369500 77.359 -97.9087
26.560584 78.101 -102.8004
26.753053 78.709 -108.4578
26.946917 79.170 -114.4521
27.142185 79.474 -120.8082
27.338869 79.622 -126.9196
27.536977 79.616 -132.9220
27.736522 79.473 -138.1423
27.937512 79.224 -142.6216
28.139959 78.914 -145.8458
28.343872 78.633 -147.8991
28.549264 78.456 -148.6514
28.756143 78.478 -148.8421
28.964522 78.702 -149.0289
29.174411 79.100 -149.9164
29.385821 79.563 -151.9664
29.598763 80.018 -155.0670
29.813248 80.385 -159.1280
30.029287 80.629 -163.6276
30.246891 80.735 -168.4479
30.466073 80.704 -173.0060
30.686842 80.563 -177.1260
30.909212 80.342 179.4359
31.133193 80.101 176.8670
31.358797 79.891 175.0103
31.586035 79.750 173.7711
31.814921 79.694 172.6603
32.045465 79.699 171.4868
32.277680 79.731 170.0963
32.511577 79.747 168.5509
32.747169 79.737 167.1177
32.984469 79.712 165.9623
33.223488 79.710 165.3158
33.464239 79.786 165.0325
33.706735 79.970 164.8192
33.950987 80.264 164.3127
34.197010 80.622 163.0499
34.444816 80.980 161.0043
34.694417 81.289 158.2933
34.945827 81.511 155.1348
35.199059 81.641 151.9652
35.454126 81.702 149.0393
35.711041 81.734 146.4999
35.969818 81.786 144.3944
36.230470 81.899 142.4478
36.493011 82.077 140.2889
36.757455 82.291 137.6606
37.023814 82.495 134.4069
37.292104 82.638 130.5553
37.562338 82.683 126.3873
37.834530 82.617 122.2029
38.108695 82.450 118.2745
38.384846 82.209 114.8517
38.662999 81.935 112.0884
38.943167 81.677 109.9099
39.225365 81.463 108.0823
39.509608 81.294 106.3507
39.795911 81.151 104.5229
40.084289 81.002 102.5396
40.374756 80.819 100.5010
40.667328 80.590 98.6259
40.962020 80.325 97.1401
41.258848 80.050 96.1953
41.557827 79.800 95.8451
41.858972 79.610 96.0312
42.162299 79.509 96.5911
42.467824 79.518 97.2846
42.775564 79.638 97.8311
43.085533 79.858 97.9494
43.397749 80.147 97.4077
43.712227 80.464 96.0766
44.028983 80.765 93.9609
44.348036 81.012 91.1806
44.669400 81.183 87.9261
44.993093 81.264 84.4115
45.319131 81.257 80.8370
45.647532 81.170 77.3668
45.978313 81.017 74.1192
46.311491 80.815 71.1691
46.647083 80.578 68.5544
46.985107 80.323 66.2814
47.325581 80.067 64.3203
47.668521 79.819 62.6019
48.013947 79.587 61.0255
48.361876 79.367 59.4920
48.712326 79.147 57.9503
49.065315 78.913 56.4295
49.420863 78.660 55.0302
49.778987 78.393 53.8729
50.139706 78.129 53.0239
50.503039 77.889 52.4426
50.869005 77.686 51.9875
51.237623 77.518 51.4892
51.608912 77.366 50.8460
51.982891 77.213 50.0682
52.359580 77.044 49.2493
52.739000 76.858 48.4959
53.121168 76.661 47.8698
53.506106 76.459 47.3754
53.893833 76.253 46.9961
54.284370 76.039 46.7468
54.677737 75.816 46.7059
55.073955 75.593 46.9845
55.473043 75.391 47.6316
55.875024 75.230 48.5373
56.279917 75.110 49.4657
56.687745 75.004 50.2434
57.098527 74.871 51.0270
57.512287 74.703 52.3843
57.929045 74.569 55.0060
58.348822 74.609 59.0943
58.771642 74.953 63.8052
59.197525 75.600 67.6841
59.626495 76.440 69.8958
60.058573 77.369 70.4661
60.493782 78.336 69.6040
60.932145 79.304 67.2577
61.373685 80.219 63.2824
61.818424 81.002 57.7207
62.266386 81.586 50.9794
62.717593 81.941 43.6467
63.172071 82.080 36.3685
63.629842 82.054 29.6625
64.090930 81.933 23.7149
64.555359 81.785 18.4141
65.023154 81.647 13.4491
65.494339 81.526 8.5480
65.968938 81.417 3.5637
66.446976 81.320 -1.5675
66.928478 81.245 -6.9745
67.413469 81.194 -12.9014
67.901975 81.150 -19.6216
68.394021 81.082 -27.3283
68.889632 80.958 -36.0718
69.388835 80.763 -45.7747
69.891655 80.514 -56.4332
70.398118 80.258 -68.1965
70.908252 80.052 -81.5048
71.422083 79.941 -96.9365
71.939636 79.932 -114.9191
72.460941 79.997 -135.2952
72.986023 80.094 -157.3004
73.514909 80.178 -179.4857
74.047629 80.227 159.6443
74.584208 80.258 141.3179
75.124676 80.346 126.1915
75.669061 80.589 114.1108
76.217390 81.055 104.1951
76.769692 81.724 95.2490
77.325997 82.515 86.2830
77.886333 83.321 76.6750
78.450730 84.037 66.2615
79.019216 84.585 55.2327
79.591822 84.928 44.1370
80.168577 85.084 33.5636
80.749512 85.119 23.9251
81.334656 85.115 15.3045
81.924040 85.145 7.3986
82.517696 85.236 -0.2925
83.115653 85.367 -8.2692
83.717943 85.479 -16.7876
84.324598 85.508 -25.6552
84.935649 85.434 -34.3669
85.551128 85.294 -42.4603
86.171066 85.158 -49.8101
86.795497 85.088 -56.6289
87.424453 85.127 -63.2586
88.057967 85.289 -70.1740
88.696071 85.540 -78.0670
89.338800 85.776 -87.4879
89.986185 85.856 -98.3349
90.638262 85.679 -109.8011
91.295065 85.227 -120.7323
91.956626 84.576 -130.1208
92.622982 83.861 -137.5164
93.294166 83.237 -143.0497
93.970214 82.839 -147.2615
94.651161 82.738 -151.3416
95.337042 82.847 -156.7885
96.027894 82.966 -163.9839
96.723752 82.948 -171.9951
97.424652 82.778 -179.8413
98.130631 82.485 172.7494
98.841726 82.075 165.8784
99.557974 81.558 160.0964
100.279412 81.012 156.0164
101.006078 80.567 153.7476
101.738010 80.352 152.7522
102.475245 80.407 151.6313
103.217823 80.603 148.9468
103.965782 80.743 144.9342
104.719161 80.763 141.2407
105.477999 80.792 139.2063
106.242336 81.025 138.5072
107.012212 81.536 137.3718
107.787666 82.206 134.2786
108.568740 82.849 128.8737
109.355474 83.312 121.7563
110.147909 83.538 114.0802
110.946086 83.578 107.0083
111.750047 83.548 100.7618
112.559834 83.500 94.3601
113.375489 83.349 86.9729
114.197055 82.974 78.9530
115.024574 82.313 71.2329
115.858089 81.364 64.5107
116.697645 80.136 59.2358
117.543284 78.636 56.4385
118.395051 76.980 58.3948
119.252990 75.570 67.3403
120.117147 74.973 79.9054
120.987565 75.182 88.1223
121.864291 75.642 91.4146
122.747370 76.101 94.1667
123.636848 76.732 98.6703
124.532771 77.686 102.7821
125.435187 78.850 104.0706
126.344142 80.036 102.3804
127.259684 81.088 97.6821
128.181860 81.862 90.3564
129.110718 82.300 81.6331
130.046308 82.399 71.9360
130.988677 82.075 60.8313
131.937875 81.158 48.7821
132.893951 79.520 37.5402
133.856956 77.435 30.3783
134.826938 76.852 62.6895
135.803950 79.373 148.5043
136.788041 82.370 137.9932
137.779264 84.426 119.6818
138.777669 85.500 101.3389
139.783309 85.857 85.6235
140.796237 85.753 72.6958
141.816504 85.312 61.9021
142.844165 84.590 53.3191
143.879273 83.659 47.5598
144.921881 82.662 45.2211
145.972045 81.797 45.8813
147.029819 81.243 48.5099
148.095257 81.178 52.8586
149.168417 81.726 57.2534
150.249353 82.721 58.0469
151.338121 83.797 53.9628
152.434780 84.691 46.1078
153.539385 85.272 35.4495
154.651995 85.467 22.8127
155.772667 85.250 8.9307
156.901460 84.614 -5.7810
158.038432 83.580 -20.8373
159.183644 82.268 -35.9556
160.337154 80.991 -52.2352
161.499023 80.243 -73.4832
162.669312 80.300 -103.1887
163.848081 80.915 -138.2660
165.035392 81.657 -170.8212
166.231306 82.301 163.6670
167.435887 82.843 145.2821
168.649196 83.343 132.3348
169.871298 83.833 122.8451
171.102255 84.320 115.6984
172.342133 84.852 110.5542
173.590995 85.459 106.3148
174.848907 86.086 101.9139
176.115934 86.725 98.0812
177.392143 87.492 95.4784
178.677599 88.444 92.5359
179.972371 89.463 87.4895
181.276525 90.380 80.1831
182.590129 91.098 71.3990
183.913252 91.577 61.6898
185.245964 91.772 51.1406
186.588332 91.596 39.8629
187.940428 90.945 28.9808
189.302322 89.809 21.0170
190.674085 88.399 19.3114
192.055788 87.248 25.1329
193.447503 86.902 33.3138
194.849303 87.333 38.4630
196.261262 88.197 40.7842
197.683452 89.275 40.9205
199.115948 90.394 37.9412
200.558824 91.373 31.7660
202.012156 92.117 23.6809
203.476019 92.590 14.2305
204.950490 92.710 3.2708
206.435646 92.364 -8.3306
207.931564 91.516 -18.2688
209.438322 90.317 -23.6665
210.955998 89.141 -23.5682
212.484672 88.312 -22.2234
214.024424 87.719 -23.1162
215.575333 87.124 -23.6826
217.137481 86.738 -19.2474
218.710948 87.145 -9.7296
220.295818 88.342 -4.8873
221.892172 89.593 -9.3821
223.500094 90.394 -19.0217
225.119668 90.670 -29.4900
226.750978 90.534 -39.0536
228.394109 90.093 -47.5916
230.049147 89.415 -54.7485
231.716178 88.582 -60.1531
233.395289 87.662 -64.2429
235.086567 86.679 -66.9812
236.790102 85.778 -66.0168
238.505980 85.406 -59.9808
240.234293 85.797 -56.1840
241.975130 86.469 -59.9877
243.728581 86.865 -69.2305
245.494739 86.659 -81.8762
247.273695 85.666 -93.8679
249.065542 84.052 -98.6864
250.870374 82.340 -97.7832
252.688284 80.798 -98.3120
254.519367 79.223 -98.6321
256.363720 77.564 -92.8260
258.221437 76.195 -81.9344
260.092616 75.573 -71.5492
261.977354 76.374 -53.8895
263.875750 78.775 -27.0631
265.787903 81.348 -23.8990
267.713911 82.946 -38.3744
269.653877 83.267 -56.1764
271.607900 82.590 -66.7959
273.576083 81.859 -65.4369
275.558528 82.247 -58.1012
277.555338 83.933 -52.3077
279.566619 85.938 -57.8358
281.592474 87.395 -74.1285
283.633009 87.936 -96.1503
285.688331 87.470 -119.6842
287.758546 86.033 -141.9010
289.843763 83.695 -161.0739
291.944090 80.594 -176.3273
294.059638 77.288 -161.6926
296.190515 75.580 -70.4537
298.336833 76.216 -76.1248
300.498705 77.657 -81.5159
302.676243 79.312 -84.0979
304.869559 80.828 -92.0311
307.078770 81.831 -105.4905
309.303989 82.416 -118.2152
311.545334 83.045 -127.8812
313.802919 83.786 -140.7708
316.076865 84.080 -160.6985
318.367288 83.446 177.0774
320.674309 81.862 160.1731
322.998047 80.158 161.2760
325.338624 80.352 178.8156
327.696162 82.282 177.0286
330.070783 83.957 158.5532
332.462612 84.597 134.1472
334.871773 84.239 111.9263
337.298392 83.359 97.0408
339.742595 82.801 89.9451
342.204510 83.245 85.9536
344.684265 84.269 75.6703
347.181989 84.888 57.0376
349.697813 84.653 37.0530
352.231868 83.714 22.0181
354.784285 82.623 14.5360
357.355198 81.996 10.4363
359.944741 81.890 3.4882
362.553049 82.137 -2.6802
365.180258 82.813 -8.1161
367.826505 83.415 -22.9862
370.491927 83.393 -41.6847
373.176665 82.982 -56.4563
375.880856 82.757 -70.2202
378.604644 82.778 -88.5999
381.348169 82.822 -110.9773
384.111575 82.778 -136.9458
386.895006 82.596 -165.4092
389.698607 82.356 165.9934
392.522524 82.235 139.4072
395.366904 82.252 114.0256
398.231895 82.044 88.6755
401.117648 81.317 67.0583
404.024312 80.381 55.0371
406.952038 79.919 49.1228
409.900981 79.795 38.1331
412.871292 79.342 25.2371
415.863128 78.357 15.7700
418.876643 77.141 14.4055
421.911996 76.424 18.6284
424.969344 76.923 28.4460
428.048847 78.455 38.4609
431.150666 79.722 30.1392
434.274961 80.059 17.0452
437.421897 79.846 8.8892
440.591636 79.918 12.2124
443.784345 80.875 19.8040
447.000189 81.956 12.2039
450.239337 82.643 2.0295
453.501956 83.309 -3.7627
456.788219 84.147 -10.8457
460.098294 84.672 -24.6909
463.432356 84.490 -40.3970
466.790578 83.707 -51.8943
470.173135 83.043 -53.3726
473.580203 83.359 -53.2947
477.011961 84.403 -62.0247
480.468586 85.632 -76.7314
483.950259 86.689 -98.7810
487.457163 87.085 -130.6233
490.989478 86.474 -170.5918
494.547390 85.044 140.2856
498.131084 83.327 73.2397
501.740748 81.973 2.9504
505.376568 81.347 -45.9609
509.038735 81.112 -80.2048
512.727439 81.603 -100.5010
516.442874 83.299 -114.5679
520.185232 85.090 -139.5288
523.954708 86.124 -170.9482
527.751500 86.365 157.5854
531.575805 85.811 127.8325
535.427822 84.522 103.0828
539.307753 83.212 92.3857
543.215800 83.783 110.3184
547.152165 85.912 107.6995
551.117055 87.493 83.7920
555.110677 87.940 56.5696
559.133237 87.423 31.8186
563.184947 86.090 9.2148
567.266018 83.853 -7.1943
571.376661 81.160 -0.6069
575.517092 80.008 26.9907
579.687526 81.177 31.6511
583.888181 82.669 21.3286
588.119275 83.330 2.8359
592.381030 82.838 -18.5684
596.673667 81.160 -37.7205
600.997410 78.954 -47.0161
605.352485 78.331 39.0369
609.739119 79.633 49.7292
614.157540 80.948 34.6704
618.607979 82.076 25.5305
623.090667 83.341 19.1958
627.605839 84.942 15.9043
632.153730 86.328 3.1411
636.734576 86.851 -15.4072
641.348617 86.828 -27.6880
645.996094 87.230 -34.2896
650.677248 88.060 -47.6755
655.392323 88.510 -68.8779
660.141566 88.098 -92.9956
664.925224 86.904 -114.5427
669.743546 85.434 -132.6396
674.596784 84.185 -151.9351
679.485191 83.211 -175.4224
684.409020 82.211 157.1267
689.368530 81.039 130.6453
694.363979 80.159 110.0078
699.395626 80.383 97.6094
704.463736 81.265 78.2485
709.568570 81.425 51.9302
714.710396 81.024 43.0613
719.889483 81.625 72.0732
725.106099 82.898 62.1445
730.360516 83.666 44.2693
735.653010 84.294 33.5347
740.983855 85.393 27.5649
746.353329 86.551 15.4509
751.761713 87.118 -0.7896
757.209288 87.271 -14.9795
762.696339 86.829 -33.7156
768.223151 85.476 -47.8169
773.790013 83.919 -51.8440
779.397214 83.096 -56.1987
785.045047 82.753 -69.4529
790.733808 81.743 -93.5754
796.463791 79.632 -122.8250
802.235296 77.977 161.3745
808.048623 79.839 68.4209
813.904077 83.353 50.0405
819.801961 86.125 24.0767
825.742584 87.721 -5.0969
831.726255 88.298 -33.9592
837.753287 87.877 -63.3074
843.823992 86.348 -89.1667
849.938689 84.504 -108.0085
856.097695 83.572 -144.4624
862.301332 83.447 126.8804
868.549922 84.024 50.7129
874.843793 84.894 12.2354
881.183272 85.697 -14.7158
887.568689 85.750 -40.4097
894.000378 84.701 -52.4995
900.478673 84.035 -44.5000
907.003913 84.656 -51.1660
913.576437 85.049 -71.2822
920.196588 84.525 -90.5786
926.864712 83.832 -99.8008
933.581156 83.615 -117.3711
940.346270 82.922 -152.2520
947.160407 81.511 157.6558
954.023921 80.429 84.5688
960.937172 80.660 27.9849
967.900519 81.550 -7.7749
974.914325 81.892 -38.6685
981.978956 81.083 -56.7637
989.094780 80.182 -26.5142
996.262169 80.216 -30.9751
1003.481495 80.056 -49.2783
1010.753136 79.383 -56.6353
1018.077470 79.844 -42.7549
1025.454879 81.713 -31.8931
1032.885748 83.627 -40.3545
1040.370463 85.562 -51.5776
1047.909417 87.042 -75.2778
1055.503000 87.282 -109.0439
1063.151610 86.062 -147.2065
1070.855645 83.531 172.0293
1078.615506 80.370 -16.3213
1086.431599 78.218 -44.7593
1094.304330 78.101 -60.1118
1102.234110 78.705 -74.2163
1110.221353 79.205 -84.9849
1118.266475 80.294 -79.6211
1126.369895 81.852 -81.4702
1134.532035 82.233 -103.2363
1142.753322 81.406 -119.3374
1151.034184 80.530 -138.2725
1159.375052 79.127 -168.6665
1167.776361 76.512 158.1616
1176.238550 73.742 107.6792
1184.762060 73.401 28.6284
1193.347334 74.619 -15.7251
1201.994821 74.892 -51.7993
1210.704971 74.570 -64.6709
1219.478238 76.072 -2.6479
1228.315080 78.501 -9.6968
1237.215957 80.117 -34.4424
1246.181334 80.751 -59.3887
1255.211678 80.295 -82.3188
1264.307459 79.002 -97.0566
1273.469152 77.718 -96.4097
1282.697235 77.188 -99.9351
1291.992188 76.924 -112.7861
1301.354495 76.437 -129.6377
1310.784647 75.621 -143.6411
1320.283132 75.119 -129.6421
1329.850448 75.024 -88.7266
1339.487093 74.106 -95.8950
1349.193569 72.756 -91.7026
1358.970381 72.881 -87.3667
1368.818041 74.446 -95.9932
1378.737061 75.902 -124.7319
1388.727958 76.660 -167.8672
1398.791253 77.351 134.8950
1408.927471 78.201 73.8022
1419.137140 78.996 25.6289
1429.420793 78.745 -12.2695
1439.778965 77.428 -30.6533
1450.212197 76.517 -39.2803
1460.721033 77.079 -37.9561
1471.306019 79.018 -36.7163
1481.967709 80.155 -59.0503
1492.706658 79.509 -81.1626
1503.523426 78.263 -88.3916
1514.418576 77.860 -100.6230
1525.392678 77.888 -125.1787
1536.446302 77.550 -145.9097
1547.580025 77.070 -50.2656
1558.794428 77.668 -76.4082
1570.090095 79.529 -105.1777
1581.467615 81.674 -143.9976
1592.927581 82.948 159.7988
1604.470591 83.238 101.0010
1616.097246 82.891 55.1440
1627.808153 82.869 28.0059
1639.603922 83.637 2.9282
1651.485168 83.859 -26.7100
1663.452510 82.724 -51.3418
1675.506573 81.139 -54.8926
1687.647984 81.346 -48.0845
1699.877377 82.859 -61.5444
1712.195390 83.582 -90.0869
1724.602663 82.665 -123.6689
1737.099845 80.576 -154.7188
1749.687587 79.190 165.9697
1762.366544 79.970 101.9551
1775.137379 81.634 61.5059
1788.000756 83.509 46.5181
1800.957346 84.824 19.5020
1814.007826 85.809 3.6465
1827.152874 87.039 -15.8442
1840.393177 87.382 -44.1274
1853.729425 86.541 -70.0508
1867.162312 85.020 -86.5151
1880.692540 83.992 -51.7134
1894.320813 84.517 -47.7803
1908.047843 85.190 -66.1108
1921.874344 85.246 -79.2056
1935.801038 85.174 -93.0557
1949.828650 84.549 -111.8188
1963.957912 83.399 -134.2256
1978.189561 82.386 160.8994
1992.524338 83.232 8.5952
2006.962991 85.790 -15.2993
2021.506272 87.982 -40.2935
2036.154940 89.017 -67.5210
2050.909758 88.736 -93.7495
2065.771495 87.426 -103.1250
2080.740927 86.554 -87.9429
2095.818833 86.668 -89.4956
2111.006001 87.431 -97.6841
2126.303220 88.395 -113.4526
2141.711290 88.939 -138.0781
2157.231013 88.339 -170.6831
2172.863198 87.238 154.0562
2188.608660 87.491 18.6919
2204.468221 88.397 -46.3999
2220.442706 88.608 -79.9165
2236.532950 88.300 -99.9707
2252.739789 88.157 -101.5596
2269.064070 89.011 -104.4526
2285.506644 90.106 -122.6875
2302.068367 90.341 -148.3970
2318.750104 89.387 -174.4688
2335.552723 88.026 165.1528
2352.477101 87.311 172.7021
2369.524119 87.443 -169.5483
2386.694668 87.589 -117.0942
2403.989641 87.208 -120.5918
2421.409941 86.928 -122.7266
2438.956476 87.475 -110.6006
2456.630160 87.990 -118.9126
2474.431915 88.087 -129.5996
2492.362668 87.941 -147.9766
2510.423356 87.325 -169.2354
2528.614918 85.795 173.5449
2546.938304 83.695 175.6943
2565.394469 82.201 -175.7500
2583.984375 81.460 -178.4429
2602.708991 81.119 172.3120
2621.569293 80.984 -170.7817
2640.566265 81.836 -107.2368
2659.700897 83.533 -121.0264
2678.974186 84.610 -142.0098
2698.387137 84.834 -158.1963
2717.940763 84.922 -158.1338
2737.636082 85.078 -154.8706
2757.474121 84.781 -170.8652
2777.455915 83.820 169.5586
2797.582506 82.018 153.0562
2817.854942 80.173 163.1611
2838.274281 79.792 -145.0991
2858.841586 80.705 -128.0347
2879.557931 82.078 -135.0371
2900.424394 83.883 -139.7061
2921.442065 85.527 -150.1426
2942.612039 86.224 -170.1016
2963.935418 85.769 167.3071
2985.413316 84.444 145.8325
3007.046852 83.117 153.9961
3028.837153 83.003 -146.5122
3050.785356 83.134 -156.8525
3072.892604 83.448 -164.5151
3095.160050 84.362 -172.8511
3117.588856 85.372 -159.3530
3140.180190 85.198 -165.6943
3162.935230 83.638 -177.8794
3185.855163 81.807 176.9077
3208.941182 80.449 171.7739
3232.194493 79.678 175.1172
3255.616307 79.974 -166.8179
3279.207844 81.806 -141.3936
3302.970336 83.843 -141.5698
3326.905021 84.464 -163.5220
3351.013146 83.762 176.6621
3375.295969 82.543 164.0435
3399.754755 82.254 165.5630
3424.390779 83.295 163.2939
3449.205326 84.162 -134.2017
3474.199690 84.657 -132.4980
3499.375173 84.736 -139.5312
3524.733088 84.921 -152.0210
3550.274757 84.697 -171.4907
3576.001511 83.822 171.5391
3601.914692 82.868 160.4287
3628.015651 83.150 -176.6899
3654.305748 84.123 -141.4941
3680.786354 84.147 -154.7139
3707.458849 83.822 -165.7188
3734.324624 84.573 -157.2891
3761.385080 85.914 -165.0039
3788.641627 85.857 171.2251
3816.095686 84.142 157.5688
3843.748688 82.513 176.4268
3871.602076 82.717 -163.8818
3899.657300 83.919 -157.1025
3927.915825 85.429 -159.7622
3956.379122 86.035 -178.3447
3985.048676 85.597 164.8389
4013.925981 84.773 164.7720
4043.012544 84.263 174.6108
4072.309879 83.895 166.2788
4101.819515 83.855 -171.6836
4131.542990 84.650 -165.8213
4161.481854 85.093 178.9424
4191.637667 84.771 162.7900
4222.012001 83.598 151.3320
4252.606441 82.558 163.2603
4283.422580 82.742 -176.4048
4314.462026 83.802 -164.7778
4345.726396 84.519 -175.0767
4377.217321 84.464 171.1631
4408.936442 83.946 161.4160
4440.885413 83.258 158.4707
4473.065899 82.804 165.4922
4505.479579 83.290 -178.4512
4538.128141 84.507 -179.1484
4571.013288 85.021 166.1182
4604.136735 84.399 152.3472
4637.500207 82.964 153.1274
4671.105446 82.325 174.1572
4704.954201 83.197 179.7705
4739.048239 84.010 169.6030
4773.389336 83.965 157.6699
4807.979283 82.978 147.9385
4842.819883 81.805 153.3877
4877.912952 81.583 169.7266
4913.260320 82.142 173.7632
4948.863830 82.796 171.0459
4984.725337 83.233 165.8418
5020.846712 83.229 157.7114
5057.229836 82.770 154.0068
5093.876609 82.521 161.0029
5130.788938 83.014 172.6304
5167.968750 83.789 170.9204
5205.417982 83.977 159.6479
5243.138586 83.337 150.3164
5281.132530 82.309 147.3169
5319.401793 81.840 156.7812
5357.948371 82.310 165.8955
5396.774274 82.800 162.9126
5435.881525 82.940 159.6846
5475.272163 82.692 152.2012
5514.948243 82.247 154.4478
5554.911831 82.222 169.9507
5595.165012 82.483 168.1333
5635.709884 82.396 159.1152
5676.548561 81.996 155.5659
5717.683172 81.815 159.6812
5759.115861 82.130 175.8311
5800.848789 82.578 173.0889
5842.884130 82.720 164.2051
5885.224077 82.867 158.9346
5927.870837 83.248 166.4717
5970.826633 83.976 176.4321
6014.093704 84.150 161.8423
6057.674306 83.387 151.7764
6101.570711 82.865 153.1753
6145.785208 83.092 168.2671
6190.320101 83.821 -179.5244
6235.177712 83.943 164.7388
6280.360380 83.216 150.6328
6325.870460 82.125 150.6069
6371.710325 81.655 178.1650
6417.882365 82.400 -177.5977
6464.388986 83.278 172.3340
6511.232613 83.426 167.9238
6558.415689 83.661 -169.8208
6605.940673 84.334 -175.6260
6653.810042 84.294 169.6587
6702.026292 83.741 165.5371
6750.591937 83.676 170.1479
6799.509509 84.206 177.4487
6848.781558 84.741 171.8574
6898.410653 84.541 164.1035
6948.399380 84.374 173.4219
6998.750346 84.899 -177.6582
7049.466176 85.245 175.1890
7100.549514 85.021 164.9751
7152.003023 84.618 164.3301
7203.829385 84.686 176.6431
7256.031302 84.849 172.1738
7308.611496 84.638 167.3179
7361.572708 84.376 165.4771
7414.917698 84.519 170.4702
7468.649249 84.989 169.2964
7522.770160 85.009 163.4507
7577.283253 84.930 165.9102
7632.191371 85.301 167.5864
7687.497376 85.569 160.8994
7743.204151 85.143 151.5791
7799.314600 84.223 152.4316
7855.831649 83.860 158.9111
7912.758244 84.078 158.7129
7970.097352 84.134 156.0698
8027.851962 84.142 165.2837
8086.025087 84.371 165.2754
8144.619758 84.127 157.5996
8203.639030 83.354 162.0405
8263.085980 83.211 171.7910
8322.963708 83.521 169.0459
8383.275334 83.615 167.7822
8444.024002 83.909 175.7607
8505.212881 84.285 175.0649
8566.845160 84.185 171.6353
8628.924051 84.141 175.6953
8691.452792 84.531 176.3555
8754.434642 84.837 171.7900
8817.872884 84.773 170.8149
8881.770826 84.837 174.3267
8946.131799 84.916 171.9023
9010.959157 84.954 172.6875
9076.256282 85.229 174.5615
9142.026576 85.600 172.2925
9208.273470 85.789 169.1899
9275.000415 85.713 166.9077
9342.210891 85.324 163.8906
9409.908403 84.926 164.8354
9478.096478 84.969 168.6465
9546.778672 85.265 168.1587
9615.958566 85.413 165.3867
9685.639765 85.380 162.6196
9755.825904 85.293 159.9424
9826.520640 85.128 159.6582
9897.727659 84.906 161.2847
9969.450674 84.544 159.3877
10041.693423 84.126 159.9829
10114.459673 84.066 163.8750
10187.753217 84.121 164.5811
10261.577877 84.020 169.1162
10335.937500 83.862 169.5894
10410.835964 83.678 169.1802
10486.277173 83.798 172.8315
10562.265060 84.344 175.2334
10638.803587 84.749 172.5903
10715.896743 84.885 169.2500
10793.548548 84.733 164.1123
10871.763050 84.265 162.4756
10950.544327 83.920 163.2065
11029.896485 83.683 161.6895
11109.823662 83.495 162.8091
11190.330024 83.373 162.1255
11271.419768 83.026 161.3813
11353.097122 82.644 165.4624
11435.366344 82.199 166.6064
11518.231722 81.781 171.5469
11601.697577 81.983 176.6401
11685.768261 82.422 176.7803
11770.448155 82.661 177.6323
11855.741674 82.688 175.5303
11941.653265 82.461 178.2012
12028.187408 82.572 -176.7529
12115.348612 82.808 -178.1128
12203.141422 83.026 -178.7988
12291.570415 83.003 175.6372
12380.640201 82.400 175.4697
12470.355424 81.928 -178.0151
12560.720760 81.995 -173.1782
12651.740920 82.417 -170.9336
12743.420650 82.699 -172.3350
12835.764729 82.983 -171.3799
12928.777972 83.069 -174.3149
13022.465227 83.074 -171.2476
13116.831378 83.214 -172.6489
13211.881345 83.234 -177.3696
13307.620084 83.039 177.2373
13404.052584 82.313 175.6787
13501.183875 81.619 -177.4775
13599.019019 81.429 -173.5225
13697.563116 81.472 -171.0078
13796.821305 81.540 -168.3369
13896.798760 81.983 -163.4619
13997.500692 82.498 -165.3740
14098.932352 82.783 -166.1338
14201.099028 82.843 -170.8491
14304.006046 82.635 -175.9941
14407.658770 81.968 178.6694
14512.062604 81.123 -178.4780
14617.222992 80.754 -175.9707
14723.145416 80.559 -177.6919
14829.835397 80.118 -179.0186
14937.298497 79.799 -176.2378
15045.540320 79.652 -176.9961
15154.566507 79.361 -178.5488
15264.382743 78.905 -178.1777
15374.994752 78.497 -178.0142
15486.408302 78.032 -178.7529
15598.629201 77.610 -177.4834
15711.663298 77.327 -176.5679
15825.516487 76.904 -178.2886
15940.194703 76.301 -176.4980
16055.703925 76.001 -171.9463
16172.050174 75.943 -171.3164
16289.239516 75.703 -172.6733
16407.278061 75.277 -172.6938
16526.171961 74.903 -171.9541
16645.927415 74.578 -173.1655
16766.550667 73.981 -176.3877
16888.048005 72.895 -176.9712
17010.425762 71.662 -170.7344
17133.690320 70.866 -160.6587
17257.848103 70.721 -150.0088
17382.905584 71.010 -143.2695
17508.869284 71.460 -137.9824
17635.745768 72.102 -134.2075
17763.541652 72.664 -135.1768
17892.263597 72.914 -137.2520
18021.918315 72.942 -139.9639
18152.512564 72.653 -145.2529
18284.053153 71.934 -148.1777
18416.546939 71.059 -148.6343
18550.000830 70.029 -148.7729
18684.421783 69.016 -142.7979
18819.816805 68.326 -138.5098
18956.192956 67.726 -135.8647
19093.557344 67.348 -130.7305
19231.917131 67.098 -130.0874
19371.279531 66.509 -131.6436
19511.651807 65.657 -133.5767
19653.041280 64.534 -135.7720
19795.455318 63.320 -134.8594
19938.901348 62.537 -135.7505
