* Measurement data measured by REW V5.31
* Source: Scarlett 2i4 USB, MICROPHONE, R, volume: no control. Timing signal peak level -25.1 dBFS, measurement signal peak level -14.1 dBFS
* Format: 512k Log Swept Sine, 1 sweep at -18.0 dBFS using an acoustic timing reference
* Dated: Apr 15, 2024 9:09:37 AM
* REW Settings:
*  C-weighting compensation: Off
*  Target level: 75.0 dB
* Note: ; Delay -4.1337 ms (-1.418 m, -(4 ft 7.8 in)) using estimated IR delay relative to Acoustic reference played from SPEAKER L with no timing offset
* Measurement: empty-p1-rr
* Smoothing: 1/48 octave
* Frequency Step: 96 ppo
* Start Frequency: 10.093689 Hz
*
* Freq(Hz) SPL(dB) Phase(degrees)
10.093689 25.851 2.5155
10.166832 25.852 0.5167
10.240505 25.855 -1.3542
10.314712 25.857 -3.0520
10.389457 25.859 -4.5060
10.464743 25.860 -5.6276
10.540575 25.861 -6.4048
10.616956 25.862 -6.9189
10.693891 25.866 -7.2508
10.771383 25.887 -7.4796
10.849437 25.968 -7.4769
10.928057 26.090 -7.2476
11.007246 26.247 -7.0001
11.087009 26.438 -6.9395
11.167350 26.670 -7.0957
11.248273 26.944 -7.2946
11.329783 27.241 -7.6681
11.411883 27.539 -8.3494
11.494578 27.830 -9.4203
11.577873 28.123 -10.7678
11.661771 28.405 -12.3392
11.746277 28.658 -14.1183
11.831395 28.871 -16.1644
11.917130 29.052 -18.5542
12.003487 29.193 -21.1300
12.090469 29.283 -23.7560
12.178081 29.318 -26.4855
12.266329 29.299 -29.5358
12.355216 29.220 -32.6982
12.444747 29.070 -35.7445
12.534926 28.850 -38.7988
12.625760 28.556 -42.0765
12.717251 28.174 -45.3313
12.809406 27.689 -48.2557
12.902228 27.108 -51.0825
12.995723 26.413 -53.8485
13.089895 25.566 -56.2397
13.184750 24.515 -57.8331
13.280292 23.254 -58.5712
13.376526 21.882 -58.0472
13.473458 20.501 -55.4186
13.571093 19.009 -48.7407
13.669434 17.595 -36.0669
13.768489 16.813 -18.3333
13.868261 17.193 -1.1817
13.968756 18.529 11.3773
14.069979 20.129 18.2414
14.171936 21.493 20.9733
14.274632 22.679 21.0991
14.378072 23.732 19.8199
14.482261 24.607 17.8026
14.587206 25.285 14.8868
14.692910 25.800 11.3788
14.799381 26.192 7.7958
14.906624 26.475 3.9707
15.014643 26.643 -0.2874
15.123446 26.716 -4.5209
15.233036 26.704 -8.6973
15.343421 26.604 -13.1858
15.454606 26.428 -17.6545
15.566596 26.186 -21.9538
15.679398 25.875 -26.4203
15.793018 25.512 -30.8816
15.907460 25.107 -35.1670
16.022732 24.660 -39.4815
16.138840 24.197 -43.8285
16.255788 23.731 -48.0730
16.373585 23.268 -52.2866
16.492234 22.838 -56.6545
16.611744 22.454 -61.0665
16.732119 22.123 -65.5393
16.853367 21.863 -70.3378
16.975494 21.682 -75.3486
17.098505 21.570 -80.5372
17.222408 21.519 -86.0593
17.347209 21.529 -91.8470
17.472914 21.568 -97.6969
17.599530 21.618 -103.6983
17.727063 21.668 -109.8354
17.855521 21.681 -115.6907
17.984909 21.646 -121.5856
18.115235 21.540 -127.2795
18.246506 21.332 -132.3454
18.378727 21.016 -137.2213
18.511907 20.565 -141.2516
18.646052 19.951 -144.1977
18.781169 19.207 -145.9752
18.917265 18.360 -145.5687
19.054347 17.450 -142.2563
19.192423 16.843 -136.0851
19.331499 16.759 -126.7762
19.471583 17.177 -117.0690
19.612682 18.091 -110.4074
19.754804 19.350 -106.5241
19.897956 20.557 -105.9677
20.042144 21.623 -107.7933
20.187378 22.511 -111.0067
20.333664 23.177 -115.7105
20.481010 23.632 -121.2853
20.629424 23.877 -127.4388
20.778913 23.908 -134.6531
20.929486 23.720 -142.0049
21.081150 23.309 -150.6101
21.233912 22.658 -159.5758
21.387782 21.757 -169.9828
21.542767 20.621 178.1195
21.698874 19.234 163.9337
21.856113 17.795 145.4213
22.014492 16.542 122.4053
22.174018 15.664 93.9786
22.334700 15.461 68.4756
22.496546 15.733 48.0280
22.659566 16.055 35.7235
22.823766 16.402 28.1699
22.989157 16.797 26.6014
23.155745 17.404 29.4829
23.323542 18.583 34.6313
23.492554 20.238 40.0262
23.662790 22.081 41.6874
23.834261 23.955 41.0483
24.006973 25.607 37.3730
24.180938 27.011 32.2914
24.356163 28.132 25.8322
24.532658 28.966 18.6329
24.710431 29.511 10.9113
24.889493 29.748 2.8978
25.069853 29.658 -5.1833
25.251519 29.184 -12.9277
25.434502 28.265 -20.1166
25.618811 26.769 -25.2538
25.804456 24.648 -25.8570
25.991445 23.232 -10.8041
26.179790 23.542 37.8665
26.369500 25.929 61.4156
26.560584 29.076 64.0270
26.753053 31.533 59.3430
26.946917 33.461 52.7759
27.142185 34.936 44.9009
27.338869 36.058 37.1590
27.536977 36.871 29.2058
27.736522 37.431 22.0201
27.937512 37.773 15.4384
28.139959 37.942 9.9899
28.343872 38.021 5.9185
28.549264 38.083 3.3625
28.756143 38.268 2.2393
28.964522 38.644 1.8805
29.174411 39.257 1.6644
29.385821 40.024 0.3594
29.598763 40.861 -2.0760
29.813248 41.646 -6.0078
30.029287 42.309 -10.9115
30.246891 42.802 -16.6932
30.466073 43.093 -22.8130
30.686842 43.170 -28.8713
30.909212 43.028 -34.7207
31.133193 42.677 -39.5334
31.358797 42.158 -43.0381
31.586035 41.538 -44.5720
31.814921 40.983 -43.7229
32.045465 40.674 -40.9808
32.277680 40.739 -37.2554
32.511577 41.157 -34.6510
32.747169 41.741 -33.9910
32.984469 42.324 -35.2635
33.223488 42.763 -38.1110
33.464239 42.998 -41.5790
33.706735 43.016 -45.1045
33.950987 42.836 -48.0628
34.197010 42.526 -49.5724
34.444816 42.221 -49.3131
34.694417 42.072 -47.2574
34.945827 42.238 -44.0790
35.199059 42.744 -41.4772
35.454126 43.469 -40.5095
35.711041 44.266 -41.4537
35.969818 45.004 -44.1478
36.230470 45.609 -48.0636
36.493011 46.057 -52.6725
36.757455 46.347 -57.6292
37.023814 46.486 -62.6611
37.292104 46.490 -67.5128
37.562338 46.378 -72.0021
37.834530 46.163 -76.0381
38.108695 45.861 -79.5245
38.384846 45.484 -82.3550
38.662999 45.052 -84.4092
38.943167 44.593 -85.5875
39.225365 44.148 -85.8733
39.509608 43.759 -85.3864
39.795911 43.460 -84.4138
40.084289 43.256 -83.3627
40.374756 43.121 -82.6146
40.667328 42.998 -82.3505
40.962020 42.835 -82.4836
41.258848 42.597 -82.7819
41.557827 42.269 -82.9882
41.858972 41.851 -82.8889
42.162299 41.345 -82.3234
42.467824 40.744 -81.0980
42.775564 40.038 -78.7723
43.085533 39.261 -74.3488
43.397749 38.598 -66.1634
43.712227 38.499 -53.2299
44.028983 39.363 -38.8581
44.348036 40.963 -29.0745
44.669400 42.754 -25.6403
44.993093 44.387 -26.9187
45.319131 45.726 -31.0760
45.647532 46.744 -36.8396
45.978313 47.454 -43.3575
46.311491 47.884 -50.0156
46.647083 48.071 -56.3323
46.985107 48.063 -61.9250
47.325581 47.920 -66.5385
47.668521 47.712 -70.1160
48.013947 47.493 -72.8510
48.361876 47.290 -75.1204
48.712326 47.082 -77.2722
49.065315 46.825 -79.4063
49.420863 46.476 -81.3129
49.778987 46.027 -82.5986
50.139706 45.510 -82.9258
50.503039 44.979 -82.2468
50.869005 44.470 -80.8439
51.237623 43.972 -79.0367
51.608912 43.445 -76.7930
51.982891 42.870 -73.7098
52.359580 42.275 -69.4325
52.739000 41.703 -63.9303
53.121168 41.197 -56.7604
53.506106 40.980 -45.6178
53.893833 41.666 -27.8999
54.284370 43.598 -9.9138
54.677737 46.099 -1.9694
55.073955 48.393 -3.4030
55.473043 50.167 -10.0889
55.875024 51.365 -19.2133
56.279917 52.012 -29.0997
56.687745 52.167 -38.4823
57.098527 51.928 -46.2806
57.512287 51.441 -51.7218
57.929045 50.886 -54.6878
58.348822 50.411 -55.9062
58.771642 50.048 -56.5696
59.197525 49.721 -57.3121
59.626495 49.353 -57.9346
60.058573 48.925 -57.9545
60.493782 48.466 -57.0645
60.932145 48.017 -55.2173
61.373685 47.614 -52.4514
61.818424 47.301 -49.0100
62.266386 47.082 -45.5455
62.717593 46.887 -42.6525
63.172071 46.596 -40.0850
63.629842 46.154 -36.5618
64.090930 45.650 -30.6285
64.555359 45.291 -21.8710
65.023154 45.246 -11.4587
65.494339 45.566 -0.4696
65.968938 46.325 11.3676
66.446976 47.679 24.2645
66.928478 49.672 36.4354
67.413469 52.059 44.4075
67.901975 54.461 46.3317
68.394021 56.567 42.8047
68.889632 58.216 35.6931
69.388835 59.344 26.8129
69.891655 59.960 17.6404
70.398118 60.132 9.6183
70.908252 59.976 3.6830
71.422083 59.648 0.4119
71.939636 59.298 -0.2146
72.460941 59.055 1.4938
72.986023 59.035 5.1839
73.514909 59.335 10.0545
74.047629 59.971 15.0179
74.584208 60.913 19.5748
75.124676 62.161 23.6625
75.669061 63.686 26.3328
76.217390 65.319 25.9049
76.769692 66.818 21.8719
77.325997 67.998 15.1058
77.886333 68.783 7.1089
78.450730 69.190 -0.7189
79.019216 69.309 -7.2942
79.591822 69.276 -12.0046
80.168577 69.226 -14.9142
80.749512 69.262 -16.4988
81.334656 69.431 -17.3347
81.924040 69.751 -17.9033
82.517696 70.210 -18.6410
83.115653 70.778 -19.8789
83.717943 71.424 -21.7276
84.324598 72.135 -24.1978
84.935649 72.906 -27.5073
85.551128 73.699 -32.1234
86.171066 74.431 -38.4462
86.795497 75.001 -46.5123
87.424453 75.319 -56.0143
88.057967 75.314 -66.5137
88.696071 74.915 -77.5122
89.338800 74.038 -88.2087
89.986185 72.604 -96.9485
90.638262 70.642 -100.2920
91.295065 68.606 -92.3485
91.956626 67.754 -71.9802
92.622982 68.896 -54.5747
93.294166 71.009 -49.2310
93.970214 73.004 -54.1569
94.651161 74.392 -65.8845
95.337042 75.001 -81.0585
96.027894 74.813 -96.8997
96.723752 73.909 -111.2423
97.424652 72.431 -122.6452
98.130631 70.542 -130.6162
98.841726 68.364 -135.3219
99.557974 65.958 -136.7965
100.279412 63.352 -134.7549
101.006078 60.568 -128.1681
101.738010 57.865 -111.2692
102.475245 56.537 -69.5107
103.217823 57.734 -32.4443
103.965782 59.886 -20.3818
104.719161 61.799 -16.4238
105.477999 63.409 -13.5620
106.242336 64.931 -10.1628
107.012212 66.547 -6.4551
107.787666 68.325 -3.6602
108.568740 70.208 -3.1298
109.355474 72.118 -4.9451
110.147909 73.958 -9.6649
110.946086 75.497 -18.6985
111.750047 76.451 -31.4608
112.559834 76.682 -45.2218
113.375489 76.265 -56.7345
114.197055 75.471 -63.8920
115.024574 74.647 -66.9133
115.858089 74.041 -67.5691
116.697645 73.752 -67.3070
117.543284 73.754 -67.7311
118.395051 73.851 -70.6032
119.252990 73.754 -75.9204
120.117147 73.279 -81.6686
120.987565 72.437 -85.6116
121.864291 71.362 -86.7045
122.747370 70.206 -84.8392
123.636848 69.136 -79.8345
124.532771 68.490 -70.3488
125.435187 68.934 -54.4415
126.344142 70.665 -39.6002
127.259684 72.750 -37.2569
128.181860 74.316 -45.3740
129.110718 75.019 -58.1727
130.046308 74.832 -71.0554
130.988677 73.905 -80.9340
131.937875 72.450 -86.8024
132.893951 70.642 -87.3496
133.856956 68.962 -75.6080
134.826938 68.449 -54.7449
135.803950 69.000 -46.4436
136.788041 69.487 -46.8619
137.779264 69.724 -44.1978
138.777669 70.437 -32.2440
139.783309 71.755 -24.9924
140.796237 72.872 -27.9036
141.816504 73.576 -31.1274
142.844165 74.376 -29.5743
143.879273 75.518 -28.8878
144.921881 76.555 -34.6052
145.972045 77.042 -44.3531
147.029819 76.865 -54.2352
148.095257 76.100 -61.6604
149.168417 74.944 -64.3154
150.249353 73.812 -60.1852
151.338121 73.311 -50.6396
152.434780 73.625 -43.2030
153.539385 74.171 -42.7318
154.651995 74.363 -46.0375
155.772667 74.092 -48.0413
156.901460 73.645 -46.2816
158.038432 73.657 -37.4653
159.183644 74.904 -19.2016
160.337154 76.892 -12.1161
161.499023 78.542 -17.9825
162.669312 79.581 -26.8301
163.848081 80.180 -34.9807
165.035392 80.457 -43.1528
166.231306 80.318 -52.2330
167.435887 79.667 -59.5555
168.649196 78.758 -61.0172
169.871298 78.236 -55.9421
171.102255 78.666 -48.4313
172.342133 79.774 -46.8422
173.590995 80.707 -54.4276
174.848907 80.944 -66.3414
176.115934 80.455 -77.9846
177.392143 79.309 -88.6622
178.677599 77.446 -96.3331
179.972371 75.082 -91.3438
181.276525 73.697 -58.0773
182.590129 74.933 -29.5734
183.913252 77.320 -23.8289
185.245964 79.486 -28.1064
186.588332 81.089 -37.5586
187.940428 81.904 -51.5906
189.302322 81.799 -65.9170
190.674085 81.055 -75.1200
192.055788 80.138 -80.1757
193.447503 79.196 -84.8630
194.849303 78.150 -87.5525
196.261262 77.365 -81.9967
197.683452 77.610 -71.7769
199.115948 78.700 -70.6805
200.558824 79.951 -76.5468
202.012156 81.158 -86.1636
203.476019 82.138 -101.6991
204.950490 82.515 -124.5536
206.435646 82.010 -152.4958
207.931564 80.687 176.3313
209.438322 78.901 138.2441
210.955998 76.986 83.9382
212.484672 75.085 15.3325
214.024424 73.420 -40.0013
215.575333 72.255 -83.5031
217.137481 71.354 -128.8579
218.710948 70.623 -179.3402
220.295818 71.024 139.4453
221.892172 72.721 108.2178
223.500094 74.950 88.0608
225.119668 77.727 86.5854
226.750978 80.155 68.0183
228.394109 81.433 37.1515
230.049147 81.473 4.7936
231.716178 80.205 -25.4836
233.395289 77.513 -43.7235
235.086567 73.769 -30.9957
236.790102 70.586 -7.4266
238.505980 70.885 22.1069
240.234293 73.536 36.1753
241.975130 75.533 17.4669
243.728581 75.936 -10.1575
245.494739 75.179 56.5884
247.273695 74.737 74.1228
249.065542 75.735 64.1409
250.870374 77.401 52.3016
252.688284 78.520 33.0824
254.519367 78.739 10.4933
256.363720 78.397 -14.3008
258.221437 77.728 -46.1012
260.092616 76.623 -83.4077
261.977354 75.167 89.0107
263.875750 74.421 112.5721
265.787903 75.566 109.2209
267.713911 77.704 98.9724
269.653877 80.216 94.3169
271.607900 82.837 92.1863
273.576083 84.726 75.0129
275.558528 85.385 50.3816
277.555338 84.856 27.6752
279.566619 83.464 11.2845
281.592474 81.577 -0.4674
283.633009 79.362 -3.0797
285.688331 77.412 8.4653
287.758546 76.322 9.7611
289.843763 75.940 12.5068
291.944090 76.638 30.2384
294.059638 77.731 26.8181
296.190515 78.121 10.3638
298.336833 77.793 -6.6881
300.498705 76.901 -26.2941
302.676243 75.366 -32.5735
304.869559 73.590 -7.0961
307.078770 71.812 -20.3304
309.303989 70.702 -42.5734
311.545334 71.369 -124.2727
313.802919 72.355 147.9590
316.076865 72.515 106.8556
318.367288 71.954 77.5718
320.674309 70.958 52.5199
322.998047 70.115 40.2948
325.338624 71.260 172.8966
327.696162 74.150 171.2762
330.070783 76.453 151.6276
332.462612 77.389 125.8342
334.871773 77.121 105.0435
337.298392 76.619 112.2427
339.742595 77.113 123.6450
342.204510 77.746 110.6193
344.684265 77.902 98.3807
347.181989 77.646 85.7228
349.697813 76.916 75.3475
352.231868 76.196 70.6632
354.784285 75.553 62.1495
357.355198 74.756 64.2213
359.944741 74.049 62.4221
362.553049 73.131 50.9250
365.180258 72.354 53.4176
367.826505 72.732 58.7625
370.491927 73.710 34.9032
373.176665 74.097 -0.5236
375.880856 73.627 0.3684
378.604644 73.078 -1.0693
381.348169 73.236 -51.2328
384.111575 73.414 -103.3976
386.895006 72.522 -146.5873
389.698607 70.597 -167.2682
392.522524 69.747 -121.7886
395.366904 71.412 -108.5208
398.231895 73.360 -130.0934
401.117648 74.083 -158.4086
404.024312 73.259 174.9092
406.952038 71.483 154.6326
409.900981 69.893 128.2162
412.871292 69.780 5.9216
415.863128 70.995 -71.0166
418.876643 72.206 -102.9448
421.911996 73.208 -127.8997
424.969344 74.241 -143.3589
428.048847 75.128 -104.8091
431.150666 75.118 -114.9531
434.274961 73.988 -134.1021
437.421897 73.148 -124.3018
440.591636 73.938 -115.5730
443.784345 74.914 -131.7837
447.000189 75.087 -153.0024
450.239337 74.535 -175.4023
453.501956 73.212 157.3369
456.788219 71.044 130.9292
460.098294 68.838 -97.7217
463.432356 67.670 -116.3984
466.790578 67.048 -131.8735
470.173135 67.184 -132.0024
473.580203 67.787 -141.8550
477.011961 67.344 -175.6289
480.468586 65.906 125.7725
483.950259 65.290 -3.2449
487.457163 65.600 -51.4912
490.989478 65.162 -82.3455
494.547390 64.077 -78.2012
498.131084 63.159 -72.7800
501.740748 62.462 -85.7195
505.376568 61.943 -101.8193
509.038735 62.070 -128.7476
512.727439 63.304 -170.8037
516.442874 64.551 137.3059
520.185232 64.808 97.1155
523.954708 64.626 79.8506
527.751500 64.663 63.6838
531.575805 64.988 55.2253
535.427822 66.473 62.1514
539.307753 68.522 48.6179
543.215800 69.680 15.7976
547.152165 69.512 -30.0830
551.117055 68.627 -112.1577
555.110677 68.072 157.9333
559.133237 68.162 119.1067
563.184947 68.530 94.3042
567.266018 69.087 83.1575
571.376661 70.138 78.6755
575.517092 71.098 53.7729
579.687526 71.698 15.1299
583.888181 72.247 -45.4495
588.119275 72.914 -121.2251
592.381030 73.174 -175.7639
596.673667 72.891 170.3823
600.997410 72.317 150.3035
605.352485 71.868 121.7822
609.739119 72.613 -137.7385
614.157540 73.707 -153.8062
618.607979 73.712 176.5085
623.090667 73.029 166.1416
627.605839 72.431 152.1604
632.153730 71.430 138.4719
636.734576 70.275 131.5994
641.348617 69.344 126.7153
645.996094 69.290 132.4116
650.677248 69.956 123.0813
655.392323 70.132 97.6870
660.141566 69.683 78.2180
664.925224 68.944 51.6152
669.743546 67.693 8.5044
674.596784 66.977 -24.2983
679.485191 67.880 -45.3586
684.409020 69.530 -57.0527
689.368530 71.495 -64.9019
694.363979 73.060 -96.8967
699.395626 73.170 -145.0725
704.463736 71.497 147.1179
709.568570 69.142 33.6851
714.710396 68.775 26.5566
719.889483 70.150 4.8552
725.106099 71.423 -20.1992
730.360516 72.343 -40.3645
735.653010 72.920 -59.7292
740.983855 72.405 -85.2773
746.353329 70.670 -108.1750
751.761713 68.857 -135.0632
757.209288 68.479 152.6365
762.696339 69.098 87.0869
768.223151 70.346 58.0439
773.790013 71.842 36.8184
779.397214 72.905 14.0811
785.045047 72.918 -11.7515
790.733808 72.451 -36.9399
796.463791 71.775 -76.7358
802.235296 70.479 -154.4448
808.048623 69.502 102.1699
813.904077 69.397 61.5972
819.801961 69.779 41.0645
825.742584 69.822 15.3989
831.726255 69.231 -15.6191
837.753287 69.023 -41.1675
843.823992 69.706 -73.9414
849.938689 69.996 -145.1479
856.097695 69.984 163.2256
862.301332 70.761 167.8853
868.549922 72.002 142.3882
874.843793 72.340 78.2417
881.183272 71.465 -125.1509
887.568689 70.371 -176.7974
894.000378 69.795 147.7061
900.478673 69.519 140.2881
907.003913 69.853 145.5762
913.576437 71.183 132.7534
920.196588 71.855 97.3989
926.864712 70.984 58.1611
933.581156 69.745 24.8120
940.346270 69.557 -15.7690
947.160407 69.958 -115.0488
954.023921 70.136 109.2866
960.937172 70.036 60.6357
967.900519 69.402 20.9932
974.914325 67.705 -4.0620
981.978956 66.281 19.3193
989.094780 66.820 94.5859
996.262169 67.865 76.0347
1003.481495 68.243 54.7495
1010.753136 68.230 68.7646
1018.077470 68.327 50.5352
1025.454879 68.678 -4.9097
1032.885748 69.197 175.9702
1040.370463 69.032 142.6831
1047.909417 68.330 119.3726
1055.503000 67.536 95.6206
1063.151610 67.053 68.2593
1070.855645 66.994 -114.7319
1078.615506 66.704 -151.3345
1086.431599 66.367 -162.1548
1094.304330 65.913 -159.8755
1102.234110 65.899 -126.9536
1110.221353 66.745 -126.0225
1118.266475 67.345 -137.4727
1126.369895 67.296 -148.1001
1134.532035 67.606 -140.5879
1142.753322 69.334 -73.0610
1151.034184 70.856 -79.0908
1159.375052 71.071 -102.0493
1167.776361 70.206 -119.1782
1176.238550 68.628 -133.8081
1184.762060 67.180 -136.7417
1193.347334 66.287 -15.4614
1201.994821 65.774 -12.3896
1210.704971 65.992 -16.7798
1219.478238 66.795 -23.2314
1228.315080 67.347 -26.6729
1237.215957 67.544 -14.7339
1246.181334 67.499 -7.3062
1255.211678 67.374 -20.7739
1264.307459 66.746 -54.9497
1273.469152 66.364 172.5381
1282.697235 66.622 112.9082
1291.992188 66.422 83.5903
1301.354495 65.819 73.3979
1310.784647 65.294 90.7803
1320.283132 65.628 122.5757
1329.850448 66.170 167.9736
1339.487093 65.740 178.2852
1349.193569 64.883 175.0488
1358.970381 64.163 178.3989
1368.818041 63.990 -173.2876
1378.737061 64.975 -175.7822
1388.727958 66.626 169.5386
1398.791253 67.990 157.4932
1408.927471 68.785 58.3154
1419.137140 68.817 6.0269
1429.420793 68.587 -9.0166
1439.778965 68.544 -34.6152
1450.212197 68.943 -56.9209
1460.721033 69.991 86.5269
1471.306019 70.751 57.3281
1481.967709 70.608 43.6724
1492.706658 70.045 42.6865
1503.523426 69.410 31.0034
1514.418576 68.805 13.5830
1525.392678 68.281 -10.4956
1536.446302 68.652 -20.6650
1547.580025 69.646 -110.1602
1558.794428 69.892 -149.1406
1570.090095 69.502 -177.4316
1581.467615 69.356 163.0542
1592.927581 69.362 137.6753
1604.470591 68.931 143.7969
1616.097246 68.372 -109.9307
1627.808153 68.063 -111.3574
1639.603922 67.450 -111.8960
1651.485168 66.740 -97.3916
1663.452510 66.986 -69.1631
1675.506573 67.365 -85.9595
1687.647984 67.469 -50.1772
1699.877377 67.791 25.9385
1712.195390 67.841 14.0767
1724.602663 67.074 -2.6313
1737.099845 66.087 9.1445
1749.687587 65.920 88.9771
1762.366544 66.463 97.4351
1775.137379 67.231 97.8252
1788.000756 67.368 81.7158
1800.957346 66.855 146.0684
1814.007826 66.582 -164.6177
1827.152874 66.420 -172.3564
1840.393177 66.450 -156.9092
1853.729425 66.928 -148.8750
1867.162312 67.164 -150.5088
1880.692540 66.814 -157.3794
1894.320813 65.979 -118.7588
1908.047843 65.825 -46.2593
1921.874344 67.069 14.3491
1935.801038 68.266 30.4404
1949.828650 68.379 14.3232
1963.957912 67.356 10.7935
1978.189561 66.281 79.2139
1992.524338 65.784 87.0151
2006.962991 65.232 88.4287
2021.506272 64.705 101.3110
2036.154940 64.517 130.8071
2050.909758 64.688 151.5029
2065.771495 65.603 -177.0723
2080.740927 66.972 -132.5137
2095.818833 67.913 -120.0737
2111.006001 68.091 -118.1519
2126.303220 67.753 -105.5186
2141.711290 66.930 -81.1587
2157.231013 66.134 -49.8599
2172.863198 66.189 -23.3618
2188.608660 66.693 -12.4443
2204.468221 66.841 -1.8291
2220.442706 66.902 37.1426
2236.532950 67.280 69.4170
2252.739789 67.222 84.9819
2269.064070 67.142 106.0151
2285.506644 67.780 128.8584
2302.068367 68.204 145.4766
2318.750104 67.980 -178.6460
2335.552723 67.845 -153.3481
2352.477101 67.712 -142.5576
2369.524119 67.212 -119.1631
2386.694668 66.558 -92.2505
2403.989641 66.101 -70.4780
2421.409941 66.236 -48.6377
2438.956476 66.620 -26.8931
2456.630160 66.772 -0.6533
2474.431915 66.712 25.4390
2492.362668 66.885 49.3105
2510.423356 66.975 65.4097
2528.614918 66.838 89.5059
2546.938304 66.597 124.3809
2565.394469 66.609 157.2280
2583.984375 67.398 176.1450
2602.708991 68.275 -159.1113
2621.569293 68.149 -141.4707
2640.566265 67.118 -95.0166
2659.700897 66.641 -50.8975
2678.974186 67.020 -18.5840
2698.387137 67.720 17.2197
2717.940763 68.049 31.7930
2737.636082 68.057 48.2969
2757.474121 68.317 63.5720
2777.455915 68.487 96.4077
2797.582506 68.589 133.9480
2817.854942 68.594 155.7251
2838.274281 68.770 -163.6997
2858.841586 68.679 -148.5496
2879.557931 68.190 -138.0906
2900.424394 67.617 -124.3970
2921.442065 67.546 -87.6792
2942.612039 68.487 -10.9785
2963.935418 69.209 7.5527
2985.413316 68.563 21.1108
3007.046852 67.132 58.1218
3028.837153 66.445 93.7461
3050.785356 66.847 117.3135
3072.892604 67.405 166.4978
3095.160050 67.633 -175.7209
3117.588856 68.004 -87.6118
3140.180190 68.442 -67.9922
3162.935230 68.292 -42.0151
3185.855163 67.510 -37.6296
3208.941182 67.178 -0.2844
3232.194493 67.513 107.0491
3255.616307 67.682 132.9255
3279.207844 68.058 162.6575
3302.970336 68.197 -161.6084
3326.905021 67.698 -133.5676
3351.013146 67.671 -98.3120
3375.295969 68.890 -57.9626
3399.754755 70.105 -22.8479
3424.390779 69.842 18.1313
3449.205326 68.920 60.1289
3474.199690 68.354 86.0781
3499.375173 68.239 123.5701
3524.733088 68.606 172.4402
3550.274757 69.023 -150.9238
3576.001511 69.027 -117.5381
3601.914692 69.043 -81.2239
3628.015651 69.065 -36.2307
3654.305748 68.895 1.2048
3680.786354 69.113 48.3076
3707.458849 69.441 85.0569
3734.324624 69.520 106.3301
3761.385080 68.964 137.1794
3788.641627 67.929 174.2097
3816.095686 67.514 -138.0151
3843.748688 68.417 -93.9341
3871.602076 69.246 -64.7358
3899.657300 68.794 -41.3938
3927.915825 67.641 -15.4441
3956.379122 66.947 61.7607
3985.048676 67.107 142.7632
4013.925981 67.782 162.8718
4043.012544 68.300 178.0996
4072.309879 68.392 -173.0718
4101.819515 68.461 -28.7375
4131.542990 68.894 8.9518
4161.481854 69.391 21.2073
4191.637667 70.011 49.8752
4222.012001 70.310 104.5801
4252.606441 69.660 170.4071
4283.422580 68.770 -152.0597
4314.462026 68.354 -126.2974
4345.726396 68.198 -96.3962
4377.217321 67.932 -36.6630
4408.936442 67.941 23.0184
4440.885413 68.355 63.4792
4473.065899 68.432 100.6667
4505.479579 67.869 141.3643
4538.128141 67.358 -161.0708
4571.013288 67.339 -106.7614
4604.136735 67.295 -64.0135
4637.500207 67.462 -22.3455
4671.105446 68.091 14.7881
4704.954201 68.614 66.6658
4739.048239 68.808 156.2466
4773.389336 68.904 -174.3669
4807.979283 68.762 -143.3408
4842.819883 68.615 -96.5532
4877.912952 68.639 -26.0866
4913.260320 68.956 24.7251
4948.863830 69.182 47.7231
4984.725337 68.906 72.8813
5020.846712 68.173 140.0513
5057.229836 67.565 -132.1348
5093.876609 67.737 -90.6040
5130.788938 67.917 -86.8641
5167.968750 67.737 139.5884
5205.417982 67.557 141.5648
5243.138586 67.772 167.8179
5281.132530 68.114 -152.0767
5319.401793 67.882 -64.4448
5357.948371 67.447 12.5945
5396.774274 67.724 37.2518
5435.881525 68.195 129.0687
5475.272163 68.491 -132.6762
5514.948243 68.524 -85.5044
5554.911831 68.313 -42.7043
5595.165012 68.023 20.3895
5635.709884 67.741 73.4580
5676.548561 67.329 124.6500
5717.683172 66.940 -177.4501
5759.115861 67.211 -119.1995
5800.848789 68.168 -52.7188
5842.884130 69.100 7.4661
5885.224077 69.340 69.4501
5927.870837 68.480 123.5052
5970.826633 67.412 -167.9924
6014.093704 67.291 -107.3401
6057.674306 68.021 -47.0502
6101.570711 68.628 12.3424
6145.785208 68.663 81.3082
6190.320101 67.898 138.1008
6235.177712 66.945 -153.7783
6280.360380 67.483 -82.1882
6325.870460 68.981 -24.8470
6371.710325 69.471 24.0663
6417.882365 68.901 98.4574
6464.388986 68.380 164.9449
6511.232613 67.939 -144.3611
6558.415689 67.242 -74.9225
6605.940673 66.779 21.2189
6653.810042 66.867 79.4879
6702.026292 67.601 158.1721
6750.591937 68.720 -112.8270
6799.509509 69.059 -62.0958
6848.781558 68.074 18.2181
6898.410653 67.317 123.2705
6948.399380 67.378 -175.3794
6998.750346 67.360 -105.0759
7049.466176 67.335 -19.7217
7100.549514 67.309 41.6174
7152.003023 66.898 102.0479
7203.829385 66.324 -172.0403
7256.031302 66.112 -100.8125
7308.611496 66.134 -25.9343
7361.572708 66.469 77.3030
7414.917698 66.562 144.7085
7468.649249 66.218 -134.1746
7522.770160 66.159 -51.5767
7577.283253 66.446 12.0205
7632.191371 66.402 107.9680
7687.497376 66.274 -171.2720
7743.204151 66.195 -101.0693
7799.314600 66.534 11.3916
7855.831649 66.835 82.7498
7912.758244 66.739 166.6611
7970.097352 66.371 -104.7361
8027.851962 65.810 -32.6184
8086.025087 65.757 75.3821
8144.619758 66.166 170.1812
8203.639030 65.907 -97.4348
8263.085980 65.090 -4.7090
8322.963708 64.865 76.2373
8383.275334 65.502 166.0894
8444.024002 65.909 -105.9102
8505.212881 65.586 -19.8682
8566.845160 65.046 73.8198
8628.924051 64.927 156.8081
8691.452792 64.865 -116.7217
8754.434642 64.604 -24.5015
8817.872884 64.405 63.7188
8881.770826 64.379 158.3789
8946.131799 64.195 -108.5249
9010.959157 64.206 -13.6470
9076.256282 64.642 80.7358
9142.026576 64.735 174.2881
9208.273470 64.701 -68.4995
9275.000415 64.895 41.0127
9342.210891 65.036 158.3232
9409.908403 65.145 -92.2227
9478.096478 65.202 15.3047
9546.778672 64.973 113.3550
9615.958566 64.564 -145.6919
9685.639765 64.564 -51.2261
9755.825904 64.546 45.0464
9826.520640 64.596 144.3726
9897.727659 64.927 -109.1040
9969.450674 65.226 3.5435
10041.693423 65.271 109.7715
10114.459673 65.277 -144.9639
10187.753217 65.185 -42.6333
10261.577877 65.331 65.9590
10335.937500 65.080 175.1377
10410.835964 64.467 -78.3135
10486.277173 64.637 29.4297
10562.265060 64.774 138.1572
10638.803587 64.192 -107.8154
10715.896743 63.377 2.4116
10793.548548 62.906 117.7588
10871.763050 63.025 -136.7202
10950.544327 63.690 -24.1567
11029.896485 64.128 86.6597
11109.823662 63.842 -154.5449
11190.330024 63.555 -42.3447
11271.419768 63.642 70.5146
11353.097122 63.583 174.9316
11435.366344 63.318 -85.6309
11518.231722 62.750 -41.8037
11601.697577 62.189 6.3691
11685.768261 62.318 109.0840
11770.448155 62.475 -134.0166
11855.741674 62.598 -19.7129
11941.653265 62.801 96.0762
12028.187408 62.806 -148.3496
12115.348612 62.601 -24.0010
12203.141422 62.344 100.8477
12291.570415 62.135 -135.3213
12380.640201 61.846 -11.5010
12470.355424 61.431 119.0801
12560.720760 60.902 -109.3047
12651.740920 60.702 21.8428
12743.420650 61.050 152.5322
12835.764729 61.321 -75.5566
12928.777972 61.094 62.5605
13022.465227 60.594 -156.7188
13116.831378 60.007 -16.4990
13211.881345 59.577 120.7529
13307.620084 59.134 -97.8984
13404.052584 58.585 58.2148
13501.183875 58.177 -148.0127
13599.019019 57.844 0.9424
13697.563116 57.546 155.4492
13796.821305 57.300 -56.0176
13896.798760 57.236 88.8984
13997.500692 57.410 -125.4678
14098.932352 57.691 19.3105
14201.099028 57.584 165.0537
14304.006046 57.281 -44.0020
14407.658770 56.675 111.1875
14512.062604 55.715 -91.2549
14617.222992 55.109 60.9980
14723.145416 55.042 -150.5283
14829.835397 54.775 -1.5566
14937.298497 54.289 154.4014
15045.540320 54.036 -31.0176
15154.566507 53.774 -151.2607
15264.382743 53.644 32.3223
15374.994752 53.894 -175.2910
15486.408302 53.906 -21.0732
15598.629201 53.559 133.8643
15711.663298 53.272 -71.3066
15825.516487 53.092 86.2207
15940.194703 52.689 -111.9463
16055.703925 52.072 55.0811
16172.050174 51.504 -133.4854
16289.239516 51.371 37.7900
16407.278061 51.606 -149.7715
16526.171961 52.014 31.1855
16645.927415 52.616 -144.3242
16766.550667 52.904 30.6699
16888.048005 52.252 -164.2568
17010.425762 51.234 -1.0146
17133.690320 50.685 175.5791
17257.848103 50.284 27.9531
17382.905584 49.875 -98.1621
17508.869284 49.371 96.3877
17635.745768 48.524 -84.9199
17763.541652 47.560 90.7939
17892.263597 46.555 -92.9590
18021.918315 45.626 82.5078
18152.512564 44.879 -102.6816
18284.053153 44.518 84.9404
18416.546939 44.170 -49.8662
18550.000830 43.711 -81.3594
18684.421783 43.194 102.8223
18819.816805 42.681 -57.9385
18956.192956 42.028 145.8857
19093.557344 41.035 -23.6953
19231.917131 40.232 166.1738
19371.279531 39.494 -1.3750
19511.651807 38.533 -169.8027
19653.041280 37.196 19.7031
19795.455318 35.879 -152.2744
19938.901348 35.166 33.1963
