* Measurement data measured by REW V5.31
* Source: Scarlett 2i4 USB, MICROPHONE, R, volume: no control. Timing signal peak level -24.3 dBFS, measurement signal peak level -17.7 dBFS
* Format: 512k Log Swept Sine, 1 sweep at -18.0 dBFS using an acoustic timing reference
* Dated: Apr 15, 2024 9:29:53 AM
* REW Settings:
*  C-weighting compensation: Off
*  Target level: 75.0 dB
* Note: ; Delay 2.2505 ms (772 mm, 2 ft 6.39 in) using estimated IR delay relative to Acoustic reference played from SPEAKER L with no timing offset
* Measurement: empty-p2-r
* Smoothing: 1/48 octave
* Frequency Step: 96 ppo
* Start Frequency: 10.093689 Hz
*
* Freq(Hz) SPL(dB) Phase(degrees)
10.093689 26.519 2.9583
10.166832 26.642 1.6724
10.240505 26.792 0.3815
10.314712 26.946 -0.8472
10.389457 27.097 -1.9452
10.464743 27.229 -2.8585
10.540575 27.327 -3.6579
10.616956 27.408 -4.3500
10.693891 27.483 -4.9154
10.771383 27.560 -5.3308
10.849437 27.639 -5.5614
10.928057 27.717 -5.6351
11.007246 27.803 -5.6127
11.087009 27.908 -5.5558
11.167350 28.035 -5.4550
11.248273 28.183 -5.2519
11.329783 28.347 -5.0534
11.411883 28.527 -4.9681
11.494578 28.724 -5.0438
11.577873 28.941 -5.1839
11.661771 29.166 -5.4420
11.746277 29.390 -5.8816
11.831395 29.606 -6.5476
11.917130 29.820 -7.3964
12.003487 30.023 -8.3929
12.090469 30.205 -9.5141
12.178081 30.360 -10.7868
12.266329 30.492 -12.2475
12.355216 30.596 -13.7973
12.444747 30.667 -15.3410
12.534926 30.703 -16.9269
12.625760 30.705 -18.6090
12.717251 30.674 -20.2598
12.809406 30.611 -21.7522
12.902228 30.511 -23.1724
12.995723 30.380 -24.5164
13.089895 30.229 -25.6811
13.184750 30.062 -26.5698
13.280292 29.875 -27.2157
13.376526 29.687 -27.6373
13.473458 29.519 -27.8412
13.571093 29.372 -27.7198
13.669434 29.250 -27.3370
13.768489 29.173 -26.8825
13.868261 29.155 -26.4371
13.968756 29.192 -25.8916
14.069979 29.274 -25.4701
14.171936 29.392 -25.3826
14.274632 29.552 -25.5407
14.378072 29.735 -25.9554
14.482261 29.914 -26.6918
14.587206 30.087 -27.8068
14.692910 30.249 -29.1937
14.799381 30.383 -30.7141
14.906624 30.479 -32.4238
15.014643 30.540 -34.3236
15.123446 30.564 -36.1603
15.233036 30.546 -37.8725
15.343421 30.489 -39.5696
15.454606 30.407 -41.0179
15.566596 30.305 -42.0627
15.679398 30.187 -42.7933
15.793018 30.088 -43.1456
15.907460 30.030 -43.0038
16.022732 30.016 -42.3972
16.138840 30.080 -41.5882
16.255788 30.247 -40.6184
16.373585 30.506 -39.5272
16.492234 30.844 -38.7631
16.611744 31.262 -38.3488
16.732119 31.736 -38.2641
16.853367 32.224 -38.7141
16.975494 32.720 -39.6427
17.098505 33.205 -40.9178
17.222408 33.654 -42.5070
17.347209 34.067 -44.4230
17.472914 34.436 -46.4421
17.599530 34.756 -48.5119
17.727063 35.028 -50.6721
17.855521 35.257 -52.6598
17.984909 35.442 -54.5316
18.115235 35.593 -56.2347
18.246506 35.723 -57.6031
18.378727 35.834 -58.7077
18.511907 35.947 -59.5225
18.646052 36.072 -59.9920
18.781169 36.218 -60.2073
18.917265 36.401 -60.2727
19.054347 36.622 -60.1547
19.192423 36.880 -60.0736
19.331499 37.175 -60.0530
19.471583 37.495 -60.1417
19.612682 37.826 -60.4608
19.754804 38.163 -60.9533
19.897956 38.488 -61.6163
20.042144 38.795 -62.4641
20.187378 39.077 -63.3763
20.333664 39.330 -64.3370
20.481010 39.556 -65.2914
20.629424 39.758 -66.1184
20.778913 39.940 -66.8509
20.929486 40.116 -67.3918
21.081150 40.290 -67.7491
21.233912 40.480 -67.9713
21.387782 40.691 -68.0357
21.542767 40.928 -68.0806
21.698874 41.197 -68.1413
21.856113 41.488 -68.2924
22.014492 41.795 -68.6307
22.174018 42.108 -69.1187
22.334700 42.410 -69.7966
22.496546 42.697 -70.6000
22.659566 42.959 -71.4338
22.823766 43.197 -72.2767
22.989157 43.417 -72.9489
23.155745 43.627 -73.4723
23.323542 43.850 -73.7336
23.492554 44.098 -73.7794
23.662790 44.396 -73.7059
23.834261 44.748 -73.5700
24.006973 45.158 -73.6445
24.180938 45.614 -73.9363
24.356163 46.092 -74.6731
24.532658 46.572 -75.7593
24.710431 47.024 -77.2292
24.889493 47.438 -78.9120
25.069853 47.800 -80.6915
25.251519 48.116 -82.3699
25.434502 48.395 -83.7977
25.618811 48.671 -84.8536
25.804456 48.969 -85.4496
25.991445 49.337 -85.7667
26.179790 49.796 -85.8609
26.369500 50.357 -86.2370
26.560584 51.002 -86.9952
26.753053 51.691 -88.5224
26.946917 52.383 -90.7560
27.142185 53.037 -93.7557
27.338869 53.616 -97.2672
27.536977 54.103 -101.2314
27.736522 54.487 -105.2876
27.937512 54.770 -109.3132
28.139959 54.962 -113.0590
28.343872 55.094 -116.3114
28.549264 55.197 -119.0060
28.756143 55.324 -121.0835
28.964522 55.511 -122.7704
29.174411 55.786 -124.2307
29.385821 56.143 -126.0035
29.598763 56.555 -128.2037
29.813248 56.971 -131.1547
30.029287 57.337 -134.7173
30.246891 57.616 -138.8691
30.466073 57.769 -143.3001
30.686842 57.780 -147.6927
30.909212 57.642 -151.8633
31.133193 57.369 -155.2071
31.358797 57.001 -157.4781
31.586035 56.597 -158.2512
31.814921 56.279 -157.3692
32.045465 56.156 -155.2205
32.277680 56.301 -152.4047
32.511577 56.705 -150.1267
32.747169 57.271 -148.9771
32.984469 57.902 -149.0748
33.223488 58.507 -150.2867
33.464239 59.049 -152.1493
33.706735 59.520 -154.3472
33.950987 59.935 -156.6089
34.197010 60.328 -158.7033
34.444816 60.734 -160.6573
34.694417 61.183 -162.5701
34.945827 61.692 -164.6197
35.199059 62.254 -167.1396
35.454126 62.845 -170.3251
35.711041 63.431 -174.2668
35.969818 63.974 -179.0213
36.230470 64.439 175.4665
36.493011 64.796 169.3581
36.757455 65.024 162.7936
37.023814 65.106 155.9017
37.292104 65.027 148.8784
37.562338 64.775 141.9926
37.834530 64.342 135.4530
38.108695 63.723 129.5164
38.384846 62.919 124.5470
38.662999 61.943 121.0556
38.943167 60.843 119.6162
39.225365 59.720 120.7250
39.509608 58.729 124.5286
39.795911 58.020 130.3595
40.084289 57.654 136.8181
40.374756 57.558 142.8506
40.667328 57.612 148.6865
40.962020 57.831 155.3828
41.258848 58.370 163.4031
41.557827 59.353 171.5798
41.858972 60.713 177.8203
42.162299 62.238 -178.9369
42.467824 63.737 -178.2697
42.775564 65.135 -179.1497
43.085533 66.465 179.3167
43.397749 67.811 177.5013
43.712227 69.237 175.1095
44.028983 70.730 171.4536
44.348036 72.213 165.9915
44.669400 73.588 158.6198
44.993093 74.774 149.6044
45.319131 75.718 139.3887
45.647532 76.391 128.4629
45.978313 76.786 117.3143
46.311491 76.909 106.4194
46.647083 76.786 96.2457
46.985107 76.463 87.2325
47.325581 76.012 79.7270
47.668521 75.526 73.8645
48.013947 75.100 69.4481
48.361876 74.799 65.9653
48.712326 74.630 62.8191
49.065315 74.556 59.6104
49.420863 74.532 56.2405
49.778987 74.528 52.8262
50.139706 74.538 49.5618
50.503039 74.584 46.5951
50.869005 74.703 43.9138
51.237623 74.926 41.2643
51.608912 75.249 38.2349
51.982891 75.629 34.5329
52.359580 76.010 30.2411
52.739000 76.382 25.7942
53.121168 76.807 21.6102
53.506106 77.401 17.5181
53.893833 78.219 12.5302
54.284370 79.183 5.3839
54.677737 80.111 -4.5810
55.073955 80.827 -17.1757
55.473043 81.209 -31.7208
55.875024 81.186 -47.3897
56.279917 80.720 -63.4452
56.687745 79.797 -79.0033
57.098527 78.433 -93.0048
57.512287 76.698 -104.2967
57.929045 74.760 -111.9986
58.348822 72.873 -116.3086
58.771642 71.245 -119.2690
59.197525 69.828 -122.8032
59.626495 68.414 -126.7152
60.058573 66.898 -129.4662
60.493782 65.393 -130.0728
60.932145 64.087 -129.7628
61.373685 62.975 -130.6486
61.818424 61.827 -133.1268
62.266386 60.453 -135.6473
62.717593 58.848 -136.6210
63.172071 57.140 -136.1362
63.629842 55.375 -136.4658
64.090930 53.414 -139.9253
64.555359 51.423 -148.3265
65.023154 51.359 116.5669
65.494339 54.253 27.3558
65.968938 57.668 15.3786
66.446976 60.596 5.6857
66.928478 63.111 -3.0140
67.413469 65.370 -11.6685
67.901975 67.410 -21.4257
68.394021 69.168 -33.0552
68.889632 70.561 -46.3721
69.388835 71.542 -60.6054
69.891655 72.117 -74.9391
70.398118 72.344 -88.3931
70.908252 72.322 -100.4601
71.422083 72.172 -110.9171
71.939636 71.989 -120.0677
72.460941 71.817 -128.3801
72.986023 71.667 -136.0956
73.514909 71.559 -143.2214
74.047629 71.540 -149.9006
74.584208 71.642 -156.6672
75.124676 71.824 -164.2449
75.669061 71.989 -172.9385
76.217390 72.040 177.5203
76.769692 71.933 167.6860
77.325997 71.667 158.0110
77.886333 71.255 148.7524
78.450730 70.696 140.1641
79.019216 70.003 132.9169
79.591822 69.295 128.0094
80.168577 68.820 125.3989
80.749512 68.751 122.9089
81.334656 68.945 117.9736
81.924040 69.097 110.4460
82.517696 69.026 101.7002
83.115653 68.707 93.0531
83.717943 68.195 85.2053
84.324598 67.543 78.3982
84.935649 66.795 72.8772
85.551128 66.011 68.9016
86.171066 65.265 66.3972
86.795497 64.600 65.0068
87.424453 64.045 64.9524
88.057967 63.739 67.2473
88.696071 63.936 71.3389
89.338800 64.668 73.7744
89.986185 65.651 72.7388
90.638262 66.687 69.4160
91.295065 67.764 64.6393
91.956626 68.913 58.4944
92.622982 70.238 51.5470
93.294166 71.856 42.7321
93.970214 73.537 28.4480
94.651161 74.792 7.1577
95.337042 75.232 -19.4908
96.027894 74.656 -48.9695
96.723752 72.960 -78.6532
97.424652 70.097 -104.9102
98.130631 66.109 -118.7216
98.841726 61.374 -87.6259
99.557974 57.306 -51.5117
100.279412 55.804 -47.9979
101.006078 55.817 -53.5702
101.738010 55.756 -62.8638
102.475245 55.484 -73.9280
103.217823 55.284 -90.0265
103.965782 55.210 -115.8322
104.719161 55.248 -152.9624
105.477999 55.461 164.8926
106.242336 55.872 130.0553
107.012212 56.529 106.6539
107.787666 57.553 91.8695
108.568740 58.854 80.1201
109.355474 60.027 66.4006
110.147909 60.613 49.4734
110.946086 60.276 31.5841
111.750047 58.932 18.6437
112.559834 57.198 23.1798
113.375489 56.749 44.7899
114.197055 57.810 50.6099
115.024574 58.981 45.7997
115.858089 59.738 38.9695
116.697645 60.125 32.7313
117.543284 60.299 27.8096
118.395051 60.385 23.7227
119.252990 60.387 19.3873
120.117147 60.192 14.3551
120.987565 59.675 9.5663
121.864291 58.794 6.5658
122.747370 57.661 7.3212
123.636848 56.998 18.7913
124.532771 58.384 51.2682
125.435187 61.460 73.4419
126.344142 64.521 73.3547
127.259684 66.952 64.1302
128.181860 68.743 51.9119
129.110718 70.119 40.1476
130.046308 71.430 30.3463
130.988677 72.770 19.3041
131.937875 73.777 3.6799
132.893951 74.109 -14.6111
133.856956 73.741 -31.9515
134.826938 72.835 -46.3066
135.803950 71.613 -56.3480
136.788041 70.466 -61.0598
137.779264 69.810 -64.8735
138.777669 69.418 -74.0538
139.783309 68.647 -87.2272
140.796237 67.195 -98.6493
141.816504 65.346 -103.6989
142.844165 63.861 -106.0122
143.879273 63.309 -116.7427
144.921881 63.534 -143.9825
145.972045 64.395 167.6068
147.029819 65.939 112.5020
148.095257 67.719 73.1056
149.168417 69.203 45.3826
150.249353 70.257 24.6920
151.338121 71.018 9.3328
152.434780 71.687 -1.9167
153.539385 72.406 -10.7814
154.651995 73.117 -19.9078
155.772667 73.623 -30.1924
156.901460 73.941 -38.8755
158.038432 74.482 -43.0930
159.183644 75.488 -47.5375
160.337154 76.461 -58.8336
161.499023 76.876 -74.2798
162.669312 76.711 -88.8760
163.848081 76.188 -101.7539
165.035392 75.350 -114.8835
166.231306 73.987 -127.6519
167.435887 72.009 -133.1079
168.649196 69.966 -124.3027
169.871298 68.703 -115.8486
171.102255 68.253 -111.6592
172.342133 68.773 -100.4509
173.590995 70.501 -86.9602
174.848907 72.556 -87.1448
176.115934 74.115 -97.3164
177.392143 75.096 -109.2815
178.677599 75.791 -119.7937
179.972371 76.348 -131.1187
181.276525 76.549 -145.7231
182.590129 76.131 -161.4058
183.913252 75.114 -174.0540
185.245964 73.840 178.7417
186.588332 72.817 174.8943
187.940428 72.256 168.0525
189.302322 71.821 154.2358
190.674085 71.109 131.8711
192.055788 70.142 94.8486
193.447503 69.823 -9.0930
194.849303 70.757 -82.9756
196.261262 71.922 -114.6492
197.683452 72.700 -135.4690
199.115948 73.186 -150.1313
200.558824 73.532 -161.2939
202.012156 73.975 -168.9170
203.476019 74.707 -176.3071
204.950490 75.743 174.9668
206.435646 77.204 166.6895
207.931564 78.810 151.0627
209.438322 79.947 125.4795
210.955998 80.246 92.3064
212.484672 79.482 52.8315
214.024424 77.734 6.0286
215.575333 75.666 -57.2109
217.137481 74.817 -123.5850
218.710948 76.104 -165.9666
220.295818 77.903 158.3447
221.892172 78.727 119.8594
223.500094 78.070 82.4778
225.119668 75.984 57.0725
226.750978 73.107 46.6611
228.394109 70.257 34.7295
230.049147 67.971 21.6755
231.716178 66.830 20.3599
233.395289 66.880 53.8467
235.086567 66.831 39.9917
236.790102 66.622 30.7549
238.505980 68.275 32.8738
240.234293 71.434 22.5015
241.975130 74.425 -1.7041
243.728581 76.593 -36.8083
245.494739 77.694 -77.4792
247.273695 77.399 -119.9138
249.065542 75.756 -158.0576
250.870374 73.347 167.9209
252.688284 71.492 124.4121
254.519367 71.877 -21.0164
256.363720 73.650 -78.7051
258.221437 75.551 -110.2939
260.092616 77.347 -136.1799
261.977354 78.593 -165.4934
263.875750 78.746 162.0437
265.787903 77.439 139.0652
267.713911 75.318 148.3591
269.653877 74.544 162.7437
271.607900 75.889 162.4412
273.576083 77.285 144.8528
275.558528 77.642 122.2761
277.555338 77.143 106.5735
279.566619 76.557 97.4910
281.592474 76.276 89.1040
283.633009 76.517 85.4980
285.688331 76.959 73.5691
287.758546 77.024 58.6943
289.843763 77.158 48.3677
291.944090 77.537 32.4631
294.059638 77.340 7.5559
296.190515 76.007 -15.4353
298.336833 74.064 -30.9397
300.498705 72.704 -54.3809
302.676243 72.405 -100.0808
304.869559 72.630 -175.7437
307.078770 73.150 121.0034
309.303989 73.970 81.2998
311.545334 74.355 47.6487
313.802919 73.616 21.4507
316.076865 72.630 22.8745
318.367288 72.691 22.1802
320.674309 72.780 1.7773
322.998047 71.994 -19.0918
325.338624 70.515 -30.7197
327.696162 69.453 -29.4702
330.070783 70.012 -10.9331
332.462612 71.917 1.8418
334.871773 73.941 -9.5356
337.298392 75.082 -34.5225
339.742595 74.907 -61.1992
342.204510 73.778 -79.3330
344.684265 72.809 -87.7754
347.181989 73.078 -81.1953
349.697813 74.173 -87.3750
352.231868 74.863 -109.7061
354.784285 74.953 -132.1538
357.355198 74.920 -149.4326
359.944741 75.127 -168.4668
362.553049 74.773 162.3472
365.180258 73.167 134.5742
367.826505 70.592 118.4268
370.491927 68.006 109.9316
373.176665 66.489 101.0903
375.880856 65.898 76.2754
378.604644 65.327 32.3271
381.348169 65.319 -163.1582
384.111575 66.072 157.8901
386.895006 66.684 130.0410
389.698607 68.003 122.2026
392.522524 70.396 116.6367
395.366904 72.441 92.1963
398.231895 73.449 58.6533
401.117648 73.353 23.2090
404.024312 72.139 -4.6333
406.952038 70.696 -2.7915
409.900981 69.959 -12.0186
412.871292 69.715 -18.6763
415.863128 70.482 -6.8394
418.876643 71.576 -29.0220
421.911996 71.934 -60.4136
424.969344 71.340 -93.5957
428.048847 69.496 -122.1670
431.150666 67.182 -133.9756
434.274961 66.816 -56.8911
437.421897 68.054 -64.6470
440.591636 68.625 -94.3232
443.784345 68.677 -115.1157
447.000189 69.133 -131.8433
450.239337 69.781 -157.5464
453.501956 70.181 172.5659
456.788219 70.939 -171.0615
460.098294 71.892 -164.9336
463.432356 71.919 154.6533
466.790578 71.100 119.6597
470.173135 70.763 173.2207
473.580203 71.389 159.5889
477.011961 71.778 126.6274
480.468586 71.853 98.1533
483.950259 71.456 66.3726
487.457163 70.104 39.3193
490.989478 68.628 22.1074
494.547390 68.257 1.0493
498.131084 68.365 8.7236
501.740748 68.050 46.8774
505.376568 67.896 24.1030
509.038735 68.866 6.2217
512.727439 69.856 -24.6050
516.442874 69.833 -64.9683
520.185232 69.790 -99.5586
523.954708 70.442 -147.8696
527.751500 70.573 135.7075
531.575805 70.054 64.9814
535.427822 69.329 11.0474
539.307753 68.792 -26.5210
543.215800 68.860 -40.8726
547.152165 69.109 -13.9849
551.117055 69.720 -37.6343
555.110677 70.762 -71.3423
559.133237 71.609 -108.5591
563.184947 71.478 -153.6206
567.266018 70.264 173.0229
571.376661 69.564 -72.4702
575.517092 70.494 -106.6846
579.687526 71.378 -147.0464
583.888181 71.263 173.6821
588.119275 70.746 143.4014
592.381030 70.096 121.7935
596.673667 69.087 117.7495
600.997410 68.052 88.9604
605.352485 67.516 49.4912
609.739119 68.153 24.9556
614.157540 69.543 50.5693
618.607979 70.010 17.7983
623.090667 69.424 -23.0005
627.605839 69.638 -44.4629
632.153730 71.955 -57.4595
636.734576 74.604 -89.4087
641.348617 76.033 -135.7773
645.996094 75.814 174.3276
650.677248 74.269 131.6655
655.392323 72.102 96.7979
660.141566 70.040 66.2368
664.925224 68.768 46.2275
669.743546 68.390 24.7803
674.596784 68.829 35.1055
679.485191 70.338 24.5713
684.409020 72.500 -9.8877
689.368530 74.347 -46.6655
694.363979 75.023 -49.0405
699.395626 74.859 -52.9434
704.463736 74.389 -81.0830
709.568570 74.291 -92.9946
714.710396 74.163 -124.3623
719.889483 73.285 -155.8652
725.106099 72.099 176.6997
730.360516 71.660 161.7085
735.653010 72.666 -170.9980
740.983855 73.626 158.5928
746.353329 73.109 105.9800
751.761713 72.302 -10.9346
757.209288 73.503 -154.9771
762.696339 75.380 160.3687
768.223151 76.532 163.8115
773.790013 76.360 141.1528
779.397214 74.305 99.1826
785.045047 71.235 91.3779
790.733808 70.255 128.1514
796.463791 71.781 112.8955
802.235296 72.999 76.5049
808.048623 73.368 50.8408
813.904077 73.158 52.0151
819.801961 72.682 -35.8975
825.742584 72.267 173.7544
831.726255 71.807 124.2290
837.753287 71.454 91.8535
843.823992 71.184 67.9316
849.938689 71.566 67.2568
856.097695 73.147 75.9419
862.301332 74.807 39.9814
868.549922 75.269 -4.3013
874.843793 74.963 64.3091
881.183272 75.095 30.3359
887.568689 75.438 -12.5171
894.000378 75.096 -14.8296
900.478673 74.943 47.1489
907.003913 75.371 1.7773
913.576437 75.509 -49.2676
920.196588 75.266 -28.3525
926.864712 74.648 11.7183
933.581156 73.631 -26.1953
940.346270 73.244 -35.8359
947.160407 74.521 -35.7144
954.023921 75.559 -64.1904
960.937172 74.726 -93.7490
967.900519 72.849 -92.5293
974.914325 72.195 -91.4907
981.978956 73.078 -109.1074
989.094780 74.344 -126.4443
996.262169 75.596 -153.9741
1003.481495 76.490 142.9385
1010.753136 77.186 -30.5039
1018.077470 77.316 -106.8345
1025.454879 76.641 -140.1470
1032.885748 76.120 -149.1172
1040.370463 75.195 174.0430
1047.909417 73.274 141.8408
1055.503000 71.619 132.7148
1063.151610 71.317 118.7095
1070.855645 71.597 83.1182
1078.615506 71.738 27.9126
1086.431599 71.897 -53.1445
1094.304330 72.501 -120.0562
1102.234110 72.946 -169.3179
1110.221353 72.821 150.9121
1118.266475 72.706 121.2495
1126.369895 73.182 123.7178
1134.532035 73.554 113.0195
1142.753322 72.955 76.3872
1151.034184 72.190 56.0615
1159.375052 72.877 159.4639
1167.776361 74.654 122.8018
1176.238550 76.087 83.8496
1184.762060 76.509 46.3013
1193.347334 76.357 12.5938
1201.994821 75.747 -22.7891
1210.704971 74.583 -54.2686
1219.478238 73.169 -81.4546
1228.315080 71.521 -105.6221
1237.215957 70.151 -65.4736
1246.181334 69.899 -85.0649
1255.211678 69.795 -117.7539
1264.307459 69.482 -1.5640
1273.469152 69.798 -33.8125
1282.697235 69.992 -40.3403
1291.992188 70.312 -52.7500
1301.354495 71.067 -81.8135
1310.784647 71.710 -106.7578
1320.283132 71.681 -145.5879
1329.850448 70.713 171.7559
1339.487093 70.068 130.8281
1349.193569 70.120 68.1416
1358.970381 69.830 9.8545
1368.818041 70.164 -27.2871
1378.737061 71.438 -57.5928
1388.727958 72.202 -96.1396
1398.791253 72.194 -131.3223
1408.927471 72.218 -153.6641
1419.137140 72.680 173.1279
1429.420793 72.899 129.9424
1439.778965 72.537 97.0654
1450.212197 72.207 78.3955
1460.721033 72.036 71.0723
1471.306019 71.839 45.9277
1481.967709 71.794 159.3672
1492.706658 71.505 139.6924
1503.523426 70.850 104.7100
1514.418576 69.998 66.6357
1525.392678 69.734 20.2617
1536.446302 69.851 -66.2012
1547.580025 69.895 128.9053
1558.794428 70.251 71.2197
1570.090095 71.032 24.4004
1581.467615 71.781 -20.8359
1592.927581 72.199 -65.6826
1604.470591 72.397 -106.8789
1616.097246 72.729 -154.4629
1627.808153 72.654 151.3164
1639.603922 71.937 101.4727
1651.485168 71.028 58.7861
1663.452510 70.397 28.9131
1675.506573 70.601 1.5537
1687.647984 71.606 -28.4189
1699.877377 72.529 -68.3369
1712.195390 72.797 -111.0332
1724.602663 72.960 -156.8652
1737.099845 72.956 151.4473
1749.687587 72.443 95.1758
1762.366544 72.072 34.2773
1775.137379 72.398 -33.5918
1788.000756 72.740 -95.9863
1800.957346 72.822 -152.3809
1814.007826 72.143 152.2158
1827.152874 70.445 103.2432
1840.393177 68.590 65.9365
1853.729425 67.922 26.2266
1867.162312 68.585 35.9863
1880.692540 69.577 -34.8838
1894.320813 70.492 -124.7568
1908.047843 71.463 171.4736
1921.874344 72.208 117.0127
1935.801038 72.085 85.1914
1949.828650 71.242 77.7686
1963.957912 70.714 37.2998
1978.189561 70.726 -14.0586
1992.524338 70.769 -73.0215
2006.962991 70.866 161.3623
2021.506272 71.174 45.0811
2036.154940 71.671 -9.2363
2050.909758 72.054 -51.9951
2065.771495 72.227 -96.0107
2080.740927 72.530 -148.5059
2095.818833 72.955 136.2061
2111.006001 72.862 -33.1836
2126.303220 72.559 -113.5713
2141.711290 72.587 -171.1152
2157.231013 72.599 135.5322
2172.863198 72.729 80.6904
2188.608660 72.942 8.0010
2204.468221 73.178 -85.5352
2220.442706 73.483 -168.3750
2236.532950 73.344 125.0410
2252.739789 72.830 69.8281
2269.064070 72.595 53.8486
2285.506644 72.952 39.0420
2302.068367 72.955 19.3076
2318.750104 72.270 -35.4854
2335.552723 71.269 63.6953
2352.477101 70.350 51.0566
2369.524119 69.996 -11.8154
2386.694668 70.241 138.9717
2403.989641 70.853 83.4248
2421.409941 71.834 49.7314
2438.956476 72.948 9.1934
2456.630160 73.794 -35.8555
2474.431915 73.813 -86.2041
2492.362668 72.926 -134.6582
2510.423356 72.362 -166.9717
2528.614918 72.625 -143.3564
2546.938304 72.788 -163.3828
2565.394469 72.665 149.5488
2583.984375 72.049 119.3857
2602.708991 71.198 171.2598
2621.569293 70.549 143.2471
2640.566265 70.159 120.2783
2659.700897 70.523 85.8271
2678.974186 71.124 67.5420
2698.387137 71.382 82.5371
2717.940763 71.637 45.3408
2737.636082 71.682 1.6436
2757.474121 71.383 -36.3076
2777.455915 70.740 -74.7559
2797.582506 69.816 -37.3340
2817.854942 69.784 -44.8447
2838.274281 70.553 -85.8770
2858.841586 70.793 -129.0117
2879.557931 70.436 -176.2832
2900.424394 69.656 115.5635
2921.442065 68.792 -25.7617
2942.612039 67.959 -101.9160
2963.935418 67.690 -141.7490
2985.413316 68.179 167.2529
3007.046852 69.259 135.7949
3028.837153 70.239 115.3721
3050.785356 70.618 146.3174
3072.892604 70.681 132.1064
3095.160050 70.682 80.8242
3117.588856 70.576 21.5215
3140.180190 70.462 -53.9326
3162.935230 70.235 177.2227
3185.855163 69.221 64.7324
3208.941182 67.654 8.0996
3232.194493 67.248 -30.4609
3255.616307 67.931 1.2451
3279.207844 68.710 -24.9102
3302.970336 68.789 -67.0996
3326.905021 68.129 -76.3906
3351.013146 67.485 -112.2793
3375.295969 67.344 -146.4414
3399.754755 67.793 -151.9844
3424.390779 68.359 -131.1025
3449.205326 68.475 178.9863
3474.199690 68.075 132.6133
3499.375173 67.686 115.4287
3524.733088 67.736 119.5439
3550.274757 67.859 79.4170
3576.001511 67.452 35.5869
3601.914692 67.270 16.6826
3628.015651 68.110 10.5029
3654.305748 69.141 -24.4053
3680.786354 69.400 -74.1035
3707.458849 68.782 -124.6260
3734.324624 68.332 -143.7295
3761.385080 68.201 -140.6533
3788.641627 67.519 -174.1064
3816.095686 67.033 146.1885
3843.748688 66.926 96.1963
3871.602076 66.679 37.1250
3899.657300 66.257 -16.0312
3927.915825 65.923 55.9297
3956.379122 65.997 -42.5674
3985.048676 66.286 144.3135
4013.925981 66.251 98.9014
4043.012544 66.162 50.8369
4072.309879 66.361 -7.4287
4101.819515 66.893 -88.5586
4131.542990 67.247 127.1973
4161.481854 67.548 20.2344
4191.637667 67.488 -52.9570
4222.012001 66.462 -99.9414
4252.606441 65.302 -111.5850
4283.422580 65.454 -137.6875
4314.462026 66.269 -175.0889
4345.726396 66.775 157.0469
4377.217321 66.716 124.2266
4408.936442 66.463 91.3271
4440.885413 66.724 58.2305
4473.065899 66.906 37.4580
4505.479579 66.534 18.2910
4538.128141 66.074 -19.9814
4571.013288 66.391 -56.3369
4604.136735 67.237 -89.1367
4637.500207 67.643 -130.2588
4671.105446 67.421 -174.4609
4704.954201 67.179 144.8789
4739.048239 67.133 130.6865
4773.389336 66.832 123.5273
4807.979283 65.980 70.0996
4842.819883 65.022 16.6055
4877.912952 64.643 -26.8633
4913.260320 65.208 -79.1094
4948.863830 65.715 -119.1201
4984.725337 65.532 -75.6045
5020.846712 65.330 129.4365
5057.229836 65.365 25.5840
5093.876609 65.405 -39.0049
5130.788938 65.570 -68.8359
5167.968750 65.774 -119.7168
5205.417982 65.613 -179.2900
5243.138586 65.163 137.7695
5281.132530 65.233 139.0332
5319.401793 65.935 91.3584
5357.948371 66.418 30.6182
5396.774274 66.599 -3.6396
5435.881525 67.051 20.8652
5475.272163 67.723 -38.0977
5514.948243 67.865 -96.6230
5554.911831 67.656 -127.5684
5595.165012 67.899 -168.7148
5635.709884 67.888 128.4922
5676.548561 67.133 94.9297
5717.683172 65.915 88.9805
5759.115861 65.000 42.6660
5800.848789 64.962 1.1855
5842.884130 65.410 -34.3789
5885.224077 65.355 -87.4492
5927.870837 64.580 -130.8008
5970.826633 63.803 -174.2051
6014.093704 63.595 -23.4453
6057.674306 63.682 -111.1562
6101.570711 63.577 -176.3184
6145.785208 63.358 129.2812
6190.320101 63.663 90.5977
6235.177712 64.684 70.6484
6280.360380 65.613 32.2207
6325.870460 65.451 -24.0918
6371.710325 64.938 -72.2012
6417.882365 65.182 -103.1172
6464.388986 65.500 -147.5957
6511.232613 65.200 163.6055
6558.415689 64.908 123.8203
6605.940673 64.811 81.3633
6653.810042 65.074 54.3828
6702.026292 65.559 11.2266
6750.591937 65.852 -47.3223
6799.509509 66.117 -81.9238
6848.781558 66.803 -109.9590
6898.410653 67.033 -178.7246
6948.399380 66.697 126.7441
6998.750346 66.466 148.7168
7049.466176 66.709 98.0566
7100.549514 67.402 62.2695
7152.003023 67.616 -3.0039
7203.829385 66.923 -44.8809
7256.031302 66.438 -74.6348
7308.611496 66.374 -131.1699
7361.572708 66.731 -170.2988
7414.917698 67.102 129.1211
7468.649249 67.081 69.5137
7522.770160 66.969 26.0059
7577.283253 66.810 -0.1309
7632.191371 66.568 -14.7148
7687.497376 66.348 -70.7910
7743.204151 66.267 -113.7852
7799.314600 66.442 -161.5996
7855.831649 66.140 147.4121
7912.758244 65.324 95.3633
7970.097352 65.070 58.3652
8027.851962 65.516 3.0234
8086.025087 65.761 -54.9609
8144.619758 65.489 -108.0996
8203.639030 65.356 -155.0527
8263.085980 66.025 161.7402
8322.963708 66.950 101.0488
8383.275334 67.261 39.4316
8444.024002 66.609 -28.2656
8505.212881 65.417 -95.7324
8566.845160 64.510 -116.6211
8628.924051 64.352 -157.8574
8691.452792 64.853 -178.6309
8754.434642 65.418 176.9512
8817.872884 65.546 116.7520
8881.770826 65.686 52.9883
8946.131799 66.376 -11.7891
9010.959157 67.074 -79.3711
9076.256282 67.082 -147.9707
9142.026576 66.429 151.0664
9208.273470 65.777 90.0586
9275.000415 65.520 22.8027
9342.210891 65.386 -40.4531
9409.908403 64.921 -105.0254
9478.096478 63.902 -170.2363
9546.778672 63.208 136.7852
9615.958566 63.548 76.1309
9685.639765 64.403 173.2344
9755.825904 65.098 91.4219
9826.520640 65.487 8.5898
9897.727659 65.576 -70.8652
9969.450674 65.203 -148.8984
10041.693423 64.748 143.0020
10114.459673 64.688 76.7988
10187.753217 64.626 -0.1523
10261.577877 64.187 -77.0312
10335.937500 63.965 -144.7227
10410.835964 63.667 152.7188
10486.277173 63.132 95.9746
10562.265060 62.744 33.4336
10638.803587 62.583 57.3203
10715.896743 62.570 -1.5586
10793.548548 62.596 -83.6836
10871.763050 62.675 -160.0625
10950.544327 62.686 121.8789
11029.896485 62.621 47.6172
11109.823662 62.430 -31.9531
11190.330024 61.945 -114.4746
11271.419768 61.702 174.3496
11353.097122 61.562 122.2891
11435.366344 60.901 62.4531
11518.231722 59.760 0.7930
11601.697577 58.852 -36.4766
11685.768261 58.755 -101.0508
11770.448155 58.811 -175.8125
11855.741674 59.102 106.2031
11941.653265 59.509 22.0566
12028.187408 59.450 -64.5098
12115.348612 58.866 -154.4570
12203.141422 57.731 118.6719
12291.570415 56.879 145.6992
12380.640201 57.210 106.9922
12470.355424 58.495 30.8438
12560.720760 59.538 -50.8809
12651.740920 59.852 -138.6035
12743.420650 60.029 134.9180
12835.764729 60.590 52.0625
12928.777972 61.166 -34.9648
13022.465227 61.325 -124.3945
13116.831378 60.952 148.9590
13211.881345 60.597 81.6074
13307.620084 60.754 14.7168
13404.052584 61.166 -65.4160
13501.183875 61.553 -152.3965
13599.019019 61.780 114.8105
13697.563116 61.347 19.8340
13796.821305 60.522 -69.2891
13896.798760 59.885 -157.7715
13997.500692 59.403 110.9746
14098.932352 58.601 32.3594
14201.099028 57.851 -28.3906
14304.006046 57.342 -92.4746
14407.658770 56.995 -174.3281
14512.062604 56.653 92.7676
14617.222992 56.097 -4.6250
14723.145416 55.518 -101.8887
14829.835397 55.082 162.4023
14937.298497 54.652 63.5527
15045.540320 53.737 -29.2500
15154.566507 52.582 -79.5957
15264.382743 52.237 -153.7773
15374.994752 52.857 106.5312
15486.408302 53.340 -2.8496
15598.629201 53.205 -115.0762
15711.663298 52.759 133.4121
15825.516487 52.626 15.6973
15940.194703 52.870 -128.4727
16055.703925 53.159 29.7539
16172.050174 53.343 -114.3945
16289.239516 53.285 116.8691
16407.278061 52.817 -16.8633
16526.171961 51.949 -156.4492
16645.927415 51.304 47.0020
16766.550667 51.439 -134.0801
16888.048005 51.977 77.1094
17010.425762 52.198 -53.0312
17133.690320 52.601 -177.1172
17257.848103 52.915 57.1152
17382.905584 52.155 -69.4355
17508.869284 50.385 179.4668
17635.745768 49.126 118.9785
17763.541652 49.522 49.4766
17892.263597 50.507 -63.8301
18021.918315 51.325 -176.6777
18152.512564 52.162 68.1641
18284.053153 52.535 -56.8906
18416.546939 51.999 177.1895
18550.000830 50.686 59.2285
18684.421783 49.061 -45.8887
18819.816805 48.006 -152.2168
18956.192956 47.574 99.3125
19093.557344 47.479 -10.1133
19231.917131 47.205 -130.1543
19371.279531 46.415 101.7793
19511.651807 45.214 -29.2520
19653.041280 43.794 -149.8223
19795.455318 42.267 116.8066
19938.901348 40.982 17.2266
