* Measurement data measured by REW V5.31
* Source: Scarlett 2i4 USB, MICROPHONE, R, volume: no control. Timing signal peak level -27.0 dBFS, measurement signal peak level -14.1 dBFS
* Format: 512k Log Swept Sine, 1 sweep at -18.0 dBFS using an acoustic timing reference
* Dated: Apr 15, 2024 9:35:30 AM
* REW Settings:
*  C-weighting compensation: Off
*  Target level: 75.0 dB
* Note: ; Delay -3.0260 ms (-1.038 m, -(3 ft 4.9 in)) using estimated IR delay relative to Acoustic reference played from SPEAKER L with no timing offset
* Measurement: empty-p3-rl
* Smoothing: 1/48 octave
* Frequency Step: 96 ppo
* Start Frequency: 10.093689 Hz
*
* Freq(Hz) SPL(dB) Phase(degrees)
10.093689 24.052 -115.5683
10.166832 24.050 -123.2992
10.240505 24.047 -131.7343
10.314712 24.044 -140.4620
10.389457 24.037 -149.0711
10.464743 24.017 -157.4494
10.540575 23.969 -166.7112
10.616956 23.914 -176.7132
10.693891 23.879 173.0833
10.771383 23.886 163.1667
10.849437 23.936 152.7427
10.928057 24.024 141.4291
11.007246 24.159 129.9721
11.087009 24.353 119.0556
11.167350 24.622 108.4397
11.248273 24.960 97.3654
11.329783 25.344 86.5687
11.411883 25.746 76.6401
11.494578 26.158 67.4579
11.577873 26.590 58.1430
11.661771 27.025 49.1729
11.746277 27.435 40.9766
11.831395 27.806 33.4562
11.917130 28.148 25.8036
12.003487 28.453 18.3646
12.090469 28.708 11.5223
12.178081 28.909 5.1700
12.266329 29.057 -1.3639
12.355216 29.147 -7.7588
12.444747 29.169 -13.6224
12.534926 29.125 -19.1946
12.625760 29.011 -24.9338
12.717251 28.812 -30.5087
12.809406 28.519 -35.5054
12.902228 28.139 -40.3846
12.995723 27.651 -45.2849
13.089895 27.012 -49.8247
13.184750 26.199 -53.6121
13.280292 25.218 -57.0565
13.376526 24.028 -59.8896
13.473458 22.524 -61.2396
13.571093 20.424 -59.8400
13.669434 18.081 -53.2979
13.768489 16.504 -35.9721
13.868261 16.757 -4.8562
13.968756 18.520 22.2057
14.069979 20.719 34.0572
14.171936 22.683 37.4661
14.274632 24.510 37.3659
14.378072 26.201 35.6467
14.482261 27.642 32.9818
14.587206 28.798 29.4679
14.692910 29.741 25.5461
14.799381 30.547 21.5443
14.906624 31.237 17.2422
15.014643 31.802 12.6331
15.123446 32.264 8.0968
15.233036 32.634 3.5107
15.343421 32.907 -1.3787
15.454606 33.090 -6.1696
15.566596 33.187 -10.8732
15.679398 33.195 -15.8542
15.793018 33.113 -20.7209
15.907460 32.943 -25.4116
16.022732 32.681 -30.3072
16.138840 32.322 -35.0386
16.255788 31.863 -39.5040
16.373585 31.301 -44.0137
16.492234 30.626 -48.2407
16.611744 29.834 -52.0118
16.732119 28.924 -55.4802
16.853367 27.892 -58.4253
16.975494 26.726 -60.3440
17.098505 25.471 -61.2717
17.222408 24.183 -61.2015
17.347209 22.865 -59.0405
17.472914 21.676 -55.5166
17.599530 20.777 -51.5224
17.727063 20.144 -46.9686
17.855521 19.706 -43.9159
17.984909 19.460 -43.2577
18.115235 19.266 -44.6285
18.246506 18.935 -48.1547
18.378727 18.462 -54.7103
18.511907 17.838 -62.9971
18.646052 17.024 -74.3994
18.781169 16.155 -89.7807
18.917265 15.456 -107.6527
19.054347 14.967 -130.3525
19.192423 14.760 -152.5727
19.331499 14.900 -173.1949
19.471583 15.136 168.9659
19.612682 15.176 155.5912
19.754804 14.957 143.1099
19.897956 14.213 134.1578
20.042144 12.837 127.1194
20.187378 11.187 123.9148
20.333664 9.429 134.9299
20.481010 8.632 -178.8313
20.629424 10.446 -146.8881
20.778913 13.606 -140.8357
20.929486 16.115 -144.1656
21.081150 17.835 -151.2130
21.233912 18.989 -158.8678
21.387782 19.612 -169.0834
21.542767 19.761 -179.7646
21.698874 19.443 166.6036
21.856113 18.914 149.2209
22.014492 18.448 124.0988
22.174018 18.534 85.4890
22.334700 19.856 44.4122
22.496546 21.912 15.2640
22.659566 23.959 -3.8988
22.823766 25.869 -18.4413
22.989157 27.415 -30.0654
23.155745 28.610 -40.6208
23.323542 29.488 -49.6555
23.492554 30.054 -58.3835
23.662790 30.326 -65.8239
23.834261 30.298 -72.9492
24.006973 29.963 -78.5778
24.180938 29.311 -83.2834
24.356163 28.322 -85.5987
24.532658 27.069 -85.0793
24.710431 25.708 -79.4669
24.889493 24.669 -67.2819
25.069853 24.614 -50.6641
25.251519 25.348 -36.0740
25.434502 26.557 -27.4631
25.618811 27.741 -22.9330
25.804456 28.647 -21.0482
25.991445 29.273 -19.6641
26.179790 29.642 -18.3723
26.369500 29.856 -15.9440
26.560584 30.000 -12.3164
26.753053 30.222 -7.1542
26.946917 30.604 -1.0528
27.142185 31.214 5.3505
27.338869 32.002 11.0616
27.536977 32.921 15.7583
27.736522 33.883 19.2352
27.937512 34.856 21.6392
28.139959 35.814 23.1324
28.343872 36.748 23.6900
28.549264 37.649 23.4562
28.756143 38.501 22.2739
28.964522 39.287 20.2464
29.174411 39.984 17.3396
29.385821 40.566 13.6707
29.598763 41.017 9.3331
29.813248 41.316 4.4345
30.029287 41.450 -0.7156
30.246891 41.409 -6.1346
30.466073 41.185 -11.3455
30.686842 40.778 -16.1223
30.909212 40.197 -20.1539
31.133193 39.481 -22.7236
31.358797 38.720 -23.4800
31.586035 38.046 -21.8049
31.814921 37.695 -18.1440
32.045465 37.788 -13.8269
32.277680 38.324 -10.3829
32.511577 39.110 -9.1996
32.747169 39.959 -10.0795
32.984469 40.755 -12.5212
33.223488 41.430 -15.9317
33.464239 41.979 -19.5520
33.706735 42.420 -22.9966
33.950987 42.789 -25.8995
34.197010 43.148 -27.9246
34.444816 43.559 -29.1278
34.694417 44.073 -29.6835
34.945827 44.721 -29.9209
35.199059 45.490 -30.3876
35.454126 46.341 -31.4074
35.711041 47.226 -33.1231
35.969818 48.101 -35.5773
36.230470 48.927 -38.7245
36.493011 49.685 -42.4366
36.757455 50.357 -46.5999
37.023814 50.932 -51.1227
37.292104 51.398 -55.9036
37.562338 51.748 -60.7792
37.834530 51.977 -65.5913
38.108695 52.086 -70.1710
38.384846 52.087 -74.3213
38.662999 52.004 -77.8121
38.943167 51.878 -80.4675
39.225365 51.765 -82.2856
39.509608 51.711 -83.4260
39.795911 51.749 -84.1888
40.084289 51.878 -84.9308
40.374756 52.071 -85.9189
40.667328 52.289 -87.2092
40.962020 52.509 -88.6568
41.258848 52.733 -90.0666
41.557827 52.984 -91.3102
41.858972 53.294 -92.3964
42.162299 53.690 -93.4883
42.467824 54.183 -94.8549
42.775564 54.759 -96.7766
43.085533 55.390 -99.4698
43.397749 56.043 -103.0687
43.712227 56.683 -107.6494
44.028983 57.274 -113.2418
44.348036 57.779 -119.8304
44.669400 58.161 -127.3462
44.993093 58.381 -135.6598
45.319131 58.404 -144.5833
45.647532 58.199 -153.8689
45.978313 57.739 -163.2062
46.311491 57.003 -172.2079
46.647083 55.983 179.6107
46.985107 54.685 172.8467
47.325581 53.151 168.1724
47.668521 51.469 166.1545
48.013947 49.764 166.8831
48.361876 48.144 169.7567
48.712326 46.625 174.1307
49.065315 45.170 -179.4995
49.420863 43.876 -169.4504
49.778987 43.080 -155.4680
50.139706 43.009 -141.4891
50.503039 43.420 -130.7426
50.869005 44.028 -121.5002
51.237623 44.941 -110.8940
51.608912 46.392 -99.9163
51.982891 48.228 -92.7914
52.359580 50.053 -90.6839
52.739000 51.659 -91.4158
53.121168 53.130 -92.5353
53.506106 54.704 -93.0699
53.893833 56.526 -94.2280
54.284370 58.485 -98.2151
54.677737 60.330 -106.0611
55.073955 61.852 -117.2561
55.473043 62.944 -130.7048
55.875024 63.559 -145.3188
56.279917 63.683 -160.2417
56.687745 63.324 -174.5579
57.098527 62.514 172.7700
57.512287 61.343 162.8391
57.929045 59.989 156.4861
58.348822 58.707 153.5957
58.771642 57.698 152.4298
59.197525 56.938 151.0952
59.626495 56.260 149.3591
60.058573 55.584 148.1375
60.493782 54.979 148.0594
60.932145 54.547 148.5658
61.373685 54.279 148.6976
61.818424 54.089 148.3148
62.266386 53.954 148.1570
62.717593 53.965 148.6067
63.172071 54.218 149.0627
63.629842 54.672 148.0913
64.090930 55.170 145.1199
64.555359 55.555 140.5842
65.023154 55.752 135.5027
65.494339 55.785 130.9329
65.968938 55.778 127.8276
66.446976 55.932 126.4521
66.928478 56.433 125.7869
67.413469 57.287 123.8071
67.901975 58.302 119.0599
68.394021 59.238 111.3699
68.889632 59.934 101.5613
69.388835 60.316 90.8583
69.891655 60.393 80.3090
70.398118 60.239 70.8755
70.908252 59.955 62.8900
71.422083 59.614 56.2220
71.939636 59.231 50.7362
72.460941 58.811 46.8948
72.986023 58.457 45.4337
73.514909 58.364 46.2297
74.047629 58.655 48.0188
74.584208 59.348 49.9858
75.124676 60.482 51.9437
75.669061 62.023 52.3848
76.217390 63.713 49.0109
76.769692 65.231 41.6243
77.325997 66.384 31.6725
77.886333 67.142 21.0492
78.450730 67.586 11.1553
79.019216 67.863 2.7131
79.591822 68.114 -4.5139
80.168577 68.381 -11.4797
80.749512 68.591 -18.9518
81.334656 68.631 -26.8855
81.924040 68.433 -34.4221
82.517696 68.030 -40.4170
83.115653 67.567 -43.8862
83.717943 67.276 -44.7230
84.324598 67.351 -44.2704
84.935649 67.791 -44.5619
85.551128 68.420 -46.8123
86.171066 69.050 -50.9729
86.795497 69.568 -56.4481
87.424453 69.924 -62.7687
88.057967 70.077 -69.6493
88.696071 69.989 -76.6741
89.338800 69.645 -83.1897
89.986185 69.073 -88.5405
90.638262 68.326 -92.3052
91.295065 67.462 -94.1514
91.956626 66.575 -93.3964
92.622982 65.902 -88.8077
93.294166 65.907 -79.8258
93.970214 66.920 -70.2325
94.651161 68.576 -66.4240
95.337042 70.233 -69.7905
96.027894 71.511 -78.0559
96.723752 72.273 -88.8047
97.424652 72.500 -100.0724
98.130631 72.257 -110.1057
98.841726 71.711 -117.5580
99.557974 71.093 -122.2554
100.279412 70.585 -125.2855
101.006078 70.257 -127.6620
101.738010 70.141 -129.8864
102.475245 70.264 -132.6459
103.217823 70.615 -136.8798
103.965782 71.101 -144.0610
104.719161 71.478 -155.7330
105.477999 71.408 -171.8799
106.242336 70.629 169.2042
107.012212 69.029 149.7239
107.787666 66.643 131.1520
108.568740 63.620 112.8811
109.355474 60.253 90.4086
110.147909 57.315 56.5999
110.946086 56.382 19.5330
111.750047 57.541 -4.2864
112.559834 59.173 -18.8291
113.375489 60.573 -28.2703
114.197055 61.737 -33.9318
115.024574 62.808 -36.7776
115.858089 63.957 -37.3262
116.697645 65.359 -36.1848
117.543284 67.017 -35.7841
118.395051 68.657 -39.2638
119.252990 69.940 -46.9308
120.117147 70.705 -56.3788
120.987565 70.993 -65.0187
121.864291 70.959 -71.5746
122.747370 70.735 -75.9358
123.636848 70.437 -77.8271
124.532771 70.277 -76.2390
125.435187 70.648 -70.5509
126.344142 71.810 -63.8545
127.259684 73.477 -61.7604
128.181860 75.185 -65.3143
129.110718 76.736 -72.3701
130.046308 78.104 -81.9398
130.988677 79.187 -94.8032
131.937875 79.769 -111.1340
132.893951 79.672 -129.1094
133.856956 78.896 -146.0449
134.826938 77.608 -160.6283
135.803950 75.973 -173.8131
136.788041 74.020 173.5483
137.779264 71.860 161.1890
138.777669 70.081 142.9656
139.783309 69.523 103.9878
140.796237 70.235 45.4457
141.816504 71.561 3.3457
142.844165 73.030 -21.2587
143.879273 74.445 -37.4492
144.921881 75.757 -49.4089
145.972045 77.007 -59.4344
147.029819 78.080 -70.5432
148.095257 78.750 -83.5017
149.168417 78.889 -96.8711
150.249353 78.484 -108.9595
151.338121 77.622 -117.6616
152.434780 76.578 -121.0659
153.539385 75.783 -119.8467
154.651995 75.551 -117.2280
155.772667 75.821 -116.6777
156.901460 76.208 -120.5024
158.038432 76.323 -127.7432
159.183644 75.964 -136.4751
160.337154 74.991 -145.1121
161.499023 73.370 -148.4150
162.669312 71.585 -138.8315
163.848081 70.610 -123.1060
165.035392 70.830 -112.2949
166.231306 72.179 -99.6152
167.435887 74.496 -85.7197
168.649196 76.964 -85.1064
169.871298 79.034 -93.6807
171.102255 80.717 -105.1775
172.342133 82.017 -119.9521
173.590995 82.674 -139.6597
174.848907 82.368 -162.4028
176.115934 80.986 176.3533
177.392143 78.674 159.9058
178.677599 75.656 148.0581
179.972371 72.043 140.3555
181.276525 67.905 148.9456
182.590129 64.464 -163.1533
183.913252 65.782 -144.3687
185.245964 70.575 7.4093
186.588332 75.220 -1.8679
187.940428 78.879 -21.8557
189.302322 81.451 -45.9574
190.674085 82.952 -71.3750
192.055788 83.386 -96.1748
193.447503 82.830 -117.4971
194.849303 81.512 -132.6384
196.261262 79.768 -140.9622
197.683452 77.921 -143.5332
199.115948 76.357 -138.7700
200.558824 75.729 -126.6123
202.012156 76.149 -119.8472
203.476019 77.014 -119.3970
204.950490 78.527 -108.3354
206.435646 80.631 -102.4067
207.931564 82.418 -112.6934
209.438322 83.536 -127.7627
210.955998 83.951 -144.2524
212.484672 83.746 -159.6006
214.024424 83.134 -173.4229
215.575333 82.098 171.0178
217.137481 80.326 156.8970
218.710948 78.173 167.3911
220.295818 77.592 -153.5010
221.892172 78.866 -151.9810
223.500094 79.961 -165.2832
225.119668 80.316 -178.0586
226.750978 80.254 170.3774
228.394109 79.516 154.8232
230.049147 77.855 144.4307
231.716178 76.086 150.1602
233.395289 76.054 176.2178
235.086567 77.686 -176.4658
236.790102 79.491 174.4783
238.505980 81.411 165.8857
240.234293 83.455 153.8787
241.975130 85.144 133.6262
243.728581 86.134 107.3906
245.494739 86.229 77.4238
247.273695 85.193 47.0149
249.065542 83.003 22.5093
250.870374 79.976 8.1353
252.688284 76.712 4.3772
254.519367 74.337 16.7930
256.363720 74.000 24.3154
258.221437 74.677 16.6943
260.092616 75.094 2.9880
261.977354 74.805 -12.6218
263.875750 74.006 -23.4375
265.787903 73.742 -14.0588
267.713911 74.879 5.3494
269.653877 75.951 -2.4299
271.607900 75.783 -20.9399
273.576083 74.773 -32.6777
275.558528 73.803 -34.5564
277.555338 73.581 -25.9285
279.566619 73.634 -30.6802
281.592474 73.605 -32.0957
283.633009 74.284 -29.0076
285.688331 75.365 -37.6501
287.758546 75.899 -56.9478
289.843763 75.815 -76.3083
291.944090 76.637 -11.3721
294.059638 78.496 -0.0015
296.190515 79.450 -30.2913
298.336833 78.769 -58.2256
300.498705 77.152 -66.4377
302.676243 76.239 -59.9792
304.869559 75.807 -74.5583
307.078770 74.404 -86.7195
309.303989 72.885 -40.7773
311.545334 73.375 -23.0750
313.802919 75.074 -30.6758
316.076865 76.502 -43.6021
318.367288 77.175 -61.7971
320.674309 77.370 -78.2800
322.998047 77.440 -102.7991
325.338624 77.550 -143.8169
327.696162 78.813 121.9067
330.070783 80.637 26.3367
332.462612 81.231 -27.8999
334.871773 79.950 -62.7039
337.298392 77.531 -49.6582
339.742595 75.812 -53.1123
342.204510 75.284 -80.8955
344.684265 74.617 -119.4827
347.181989 73.359 177.1338
349.697813 72.521 50.1907
352.231868 72.803 1.1855
354.784285 72.895 -24.1331
357.355198 72.894 1.5286
359.944741 75.194 32.9438
362.553049 78.985 71.5461
365.180258 81.793 47.4751
367.826505 82.786 8.9216
370.491927 82.056 -25.3738
373.176665 80.293 -42.8464
375.880856 78.824 -42.4805
378.604644 78.365 -54.6887
381.348169 77.935 -75.6025
384.111575 76.964 -99.4561
386.895006 75.250 -123.9202
389.698607 72.860 -101.4075
392.522524 70.863 -73.9888
395.366904 70.504 -94.3391
398.231895 71.329 -120.0488
401.117648 72.387 -22.8555
404.024312 73.515 -63.5989
406.952038 74.337 -125.9387
409.900981 74.498 147.4512
412.871292 74.102 69.2224
415.863128 72.987 19.5813
418.876643 71.458 -6.6865
421.911996 71.077 -18.4011
424.969344 72.814 -27.4268
428.048847 75.247 -42.6711
431.150666 76.545 -76.7520
434.274961 76.016 -116.9329
437.421897 74.133 -151.0349
440.591636 72.065 -178.2983
443.784345 70.917 154.3608
447.000189 70.058 129.8354
450.239337 68.616 177.8057
453.501956 67.109 170.7251
456.788219 65.970 151.7217
460.098294 64.906 136.1575
463.432356 64.181 129.7056
466.790578 63.831 125.9473
470.173135 63.593 120.5505
473.580203 63.855 111.4001
477.011961 65.397 146.6042
480.468586 68.308 -151.5388
483.950259 70.840 -176.7388
487.457163 71.898 148.6721
490.989478 71.456 116.5918
494.547390 69.902 101.4165
498.131084 68.122 109.0774
501.740748 66.716 98.2764
505.376568 65.283 84.8843
509.038735 63.906 79.0823
512.727439 62.841 66.3721
516.442874 62.101 94.3313
520.185232 62.258 132.6096
523.954708 62.909 107.9751
527.751500 63.134 72.3250
531.575805 63.202 -156.4512
535.427822 63.133 171.9929
539.307753 62.999 147.1958
543.215800 63.467 127.5161
547.152165 64.899 105.9951
551.117055 67.200 84.2500
555.110677 69.287 47.4846
559.133237 69.833 -15.0288
563.184947 68.945 -67.8750
567.266018 68.099 -110.3596
571.376661 67.806 -159.6482
575.517092 67.984 123.9058
579.687526 69.399 7.9834
583.888181 71.395 -45.8003
588.119275 72.495 -90.4878
592.381030 72.436 -132.3896
596.673667 71.862 -170.7920
600.997410 71.408 148.8237
605.352485 70.846 98.7036
609.739119 69.926 46.9873
614.157540 69.138 3.6699
618.607979 68.659 -27.5771
623.090667 68.576 -54.9653
627.605839 68.989 -83.4639
632.153730 69.833 -115.0220
636.734576 70.326 -58.1182
641.348617 69.955 -74.9902
645.996094 68.979 -131.8550
650.677248 67.849 137.5039
655.392323 67.058 61.0049
660.141566 66.792 29.2256
664.925224 67.132 17.5918
669.743546 67.920 2.7207
674.596784 68.661 -0.8794
679.485191 69.434 -5.7588
684.409020 69.792 -26.9268
689.368530 69.813 -29.1440
694.363979 70.440 -29.3164
699.395626 71.354 -45.3877
704.463736 71.896 -61.9814
709.568570 71.682 -111.1089
714.710396 70.293 170.7725
719.889483 68.458 110.3027
725.106099 67.554 79.4536
730.360516 68.094 69.8076
735.653010 68.754 54.8066
740.983855 69.404 44.9502
746.353329 70.711 36.8291
751.761713 71.885 45.8896
757.209288 72.838 72.4287
762.696339 72.913 41.2554
768.223151 71.865 33.5322
773.790013 70.916 81.7642
779.397214 70.714 62.2222
785.045047 70.492 37.9062
790.733808 70.256 23.0200
796.463791 70.146 25.2744
802.235296 69.866 13.8887
808.048623 70.152 -7.8691
813.904077 70.897 -42.5884
819.801961 70.550 -89.2715
825.742584 68.783 -131.1899
831.726255 67.078 -158.5415
837.753287 67.191 -174.9131
843.823992 68.532 -149.3799
849.938689 69.542 -145.5752
856.097695 69.917 -143.2349
862.301332 70.488 -152.0986
868.549922 70.747 -179.5151
874.843793 70.215 159.6440
881.183272 69.315 157.2017
887.568689 68.981 158.5918
894.000378 69.373 150.8301
900.478673 69.785 152.4883
907.003913 70.087 176.0991
913.576437 70.616 175.7134
920.196588 71.542 154.2251
926.864712 72.302 119.1523
933.581156 72.001 75.5034
940.346270 70.518 31.4111
947.160407 68.751 -7.6191
954.023921 67.822 -43.3564
960.937172 67.822 55.8169
967.900519 67.575 24.0654
974.914325 67.065 4.9463
981.978956 67.602 -12.1289
989.094780 68.976 -32.3193
996.262169 69.482 -55.0137
1003.481495 68.519 -45.7720
1010.753136 67.416 16.3213
1018.077470 67.332 -5.6328
1025.454879 67.634 -21.6221
1032.885748 67.704 20.7734
1040.370463 67.888 22.5571
1047.909417 68.316 1.3657
1055.503000 68.098 -17.9219
1063.151610 66.902 -36.1650
1070.855645 65.835 39.9336
1078.615506 66.366 22.2124
1086.431599 67.813 -67.3413
1094.304330 69.046 -176.1074
1102.234110 69.584 137.1294
1110.221353 69.323 114.3936
1118.266475 68.747 104.7456
1126.369895 68.526 136.4854
1134.532035 68.499 134.9209
1142.753322 68.201 113.9629
1151.034184 67.585 104.5840
1159.375052 67.530 113.9658
1167.776361 68.141 107.4624
1176.238550 68.451 82.7207
1184.762060 68.007 52.2446
1193.347334 67.838 -138.7129
1201.994821 68.516 170.6245
1210.704971 68.761 127.2173
1219.478238 68.204 81.1152
1228.315080 67.644 12.6230
1237.215957 67.166 -83.4937
1246.181334 66.536 -81.4399
1255.211678 65.977 -70.3594
1264.307459 65.574 -73.6562
1273.469152 66.589 -77.3296
1282.697235 68.471 -89.3511
1291.992188 69.539 -102.0815
1301.354495 69.245 -107.2295
1310.784647 68.005 -118.4844
1320.283132 66.976 -123.2329
1329.850448 66.881 -133.0234
1339.487093 66.935 -158.6255
1349.193569 67.098 -162.8037
1358.970381 67.888 18.9995
1368.818041 68.879 -4.9097
1378.737061 69.152 -49.4902
1388.727958 68.779 -99.2827
1398.791253 68.825 -173.5400
1408.927471 69.065 110.3076
1419.137140 69.244 94.7725
1429.420793 69.359 100.5601
1439.778965 69.123 77.9858
1450.212197 68.525 60.9893
1460.721033 67.813 65.6499
1471.306019 67.621 74.1655
1481.967709 68.374 70.0474
1492.706658 69.151 66.0718
1503.523426 69.201 51.5264
1514.418576 68.872 34.6201
1525.392678 69.014 21.7231
1536.446302 69.036 -17.5757
1547.580025 68.326 -78.7393
1558.794428 67.899 -93.3149
1570.090095 67.939 -56.1987
1581.467615 67.542 -100.8228
1592.927581 66.639 -132.4902
1604.470591 65.862 -146.8672
1616.097246 65.432 -147.4678
1627.808153 65.703 -77.1719
1639.603922 66.513 -64.5112
1651.485168 66.598 -89.0737
1663.452510 66.065 -103.5288
1675.506573 66.497 -87.7808
1687.647984 67.691 -88.8228
1699.877377 68.057 -113.6978
1712.195390 67.832 -91.5347
1724.602663 67.338 -94.8755
1737.099845 66.738 -153.4399
1749.687587 66.058 141.7773
1762.366544 65.390 119.6826
1775.137379 66.237 118.1206
1788.000756 68.110 126.4443
1800.957346 69.105 107.7578
1814.007826 69.258 88.1445
1827.152874 69.920 104.8569
1840.393177 70.378 105.0825
1853.729425 69.388 108.6816
1867.162312 67.358 120.0107
1880.692540 65.965 131.9106
1894.320813 66.195 116.2520
1908.047843 66.717 77.5610
1921.874344 66.397 28.9766
1935.801038 66.607 -8.7065
1949.828650 67.966 -39.1523
1963.957912 68.710 -68.1255
1978.189561 68.397 -88.1973
1992.524338 68.277 -99.8911
2006.962991 68.467 -127.3550
2021.506272 68.197 -159.6641
2036.154940 67.645 165.1992
2050.909758 67.490 120.2461
2065.771495 67.985 97.2383
2080.740927 68.602 64.7153
2095.818833 68.829 21.9355
2111.006001 68.544 -18.3838
2126.303220 68.234 -131.8130
2141.711290 68.291 -161.9229
2157.231013 68.090 158.9917
2172.863198 67.584 126.9561
2188.608660 67.071 93.8169
2204.468221 66.102 56.6973
2220.442706 65.194 -2.4971
2236.532950 64.510 -62.6401
2252.739789 64.488 -98.8936
2269.064070 65.334 -132.6440
2285.506644 66.163 173.2700
2302.068367 66.291 28.7920
2318.750104 65.942 8.5840
2335.552723 65.718 -10.5146
2352.477101 65.720 -19.8545
2369.524119 66.235 -27.5098
2386.694668 67.007 -48.7490
2403.989641 67.469 -121.9199
2421.409941 67.493 123.1758
2438.956476 67.213 117.6904
2456.630160 66.550 97.4014
2474.431915 66.005 105.6895
2492.362668 65.891 -174.9756
2510.423356 66.510 -166.0098
2528.614918 67.689 -173.8379
2546.938304 68.266 165.3213
2565.394469 67.929 137.2598
2583.984375 66.845 82.0176
2602.708991 65.460 -4.5605
2621.569293 65.005 -26.6875
2640.566265 65.420 -30.7529
2659.700897 65.944 -35.9541
2678.974186 65.955 -40.6875
2698.387137 66.066 13.0068
2717.940763 66.572 53.0928
2737.636082 66.617 47.4404
2757.474121 66.608 68.7236
2777.455915 67.127 88.9766
2797.582506 67.618 102.4629
2817.854942 67.379 119.8047
2838.274281 66.775 133.6504
2858.841586 67.037 158.4746
2879.557931 67.684 -141.8672
2900.424394 68.010 -118.2246
2921.442065 68.108 -102.2109
2942.612039 68.544 -79.6821
2963.935418 68.934 -78.8457
2985.413316 68.851 -76.9683
3007.046852 68.308 -55.8999
3028.837153 67.862 -19.4351
3050.785356 67.956 22.3745
3072.892604 68.150 32.7349
3095.160050 68.320 43.2427
3117.588856 68.188 69.3462
3140.180190 67.676 89.0942
3162.935230 67.160 116.5918
3185.855163 66.924 167.5713
3208.941182 67.052 -166.8110
3232.194493 67.541 -150.6616
3255.616307 67.884 -128.9854
3279.207844 68.435 -111.8467
3302.970336 69.330 -97.7441
3326.905021 70.005 -83.1812
3351.013146 70.327 -62.4126
3375.295969 70.372 -16.6187
3399.754755 69.972 15.7656
3424.390779 69.680 32.1724
3449.205326 69.542 39.6567
3474.199690 69.059 50.2959
3499.375173 68.714 80.6440
3524.733088 68.523 113.9097
3550.274757 68.393 150.3052
3576.001511 68.517 173.6577
3601.914692 68.578 -166.9810
3628.015651 68.403 -148.5771
3654.305748 68.223 -129.9233
3680.786354 67.828 -108.8672
3707.458849 67.756 -70.6147
3734.324624 68.618 -28.2407
3761.385080 69.649 4.1201
3788.641627 70.342 24.0957
3816.095686 70.136 35.9321
3843.748688 69.182 51.4453
3871.602076 68.251 89.6055
3899.657300 67.869 130.2368
3927.915825 67.849 155.8706
3956.379122 68.071 -175.4561
3985.048676 68.469 -156.9956
4013.925981 68.574 -134.0601
4043.012544 68.990 -84.8730
4072.309879 69.453 -44.9956
4101.819515 69.712 -23.2412
4131.542990 69.688 -3.9746
4161.481854 69.114 11.5479
4191.637667 68.701 45.1323
4222.012001 69.105 82.6519
4252.606441 69.167 104.7051
4283.422580 69.058 135.0605
4314.462026 68.869 164.7642
4345.726396 68.077 -156.9009
4377.217321 67.526 -112.9272
4408.936442 67.517 -54.4688
4440.885413 67.615 -31.3008
4473.065899 68.213 -25.8052
4505.479579 69.087 -32.9253
4538.128141 69.159 -80.3364
4571.013288 68.718 -165.1167
4604.136735 68.335 -179.0083
4637.500207 67.942 170.3149
4671.105446 67.447 166.5034
4704.954201 66.982 170.7158
4739.048239 67.221 -11.6094
4773.389336 67.748 -18.4932
4807.979283 67.954 -31.6836
4842.819883 67.955 -49.2930
4877.912952 67.935 -111.9175
4913.260320 68.040 -174.4995
4948.863830 68.382 162.5889
4984.725337 69.303 139.3975
5020.846712 70.182 73.5547
5057.229836 69.921 24.1699
5093.876609 68.982 14.5195
5130.788938 68.184 21.1304
5167.968750 67.812 51.5293
5205.417982 67.833 69.2085
5243.138586 67.819 85.6064
5281.132530 67.885 -159.8887
5319.401793 68.116 -142.4917
5357.948371 68.203 -138.3389
5396.774274 67.910 -128.8052
5435.881525 67.513 -129.2974
5475.272163 67.251 64.9321
5514.948243 67.231 62.3301
5554.911831 67.347 55.7236
5595.165012 67.336 -17.3237
5635.709884 67.448 -82.6455
5676.548561 67.928 -98.6597
5717.683172 68.233 -110.3872
5759.115861 67.999 -139.6221
5800.848789 67.757 137.0825
5842.884130 67.860 98.4009
5885.224077 68.098 80.2036
5927.870837 68.196 45.4717
5970.826633 68.110 -61.4336
6014.093704 68.228 -92.4521
6057.674306 68.653 -118.6040
6101.570711 68.882 -177.8564
6145.785208 68.918 124.7827
6190.320101 69.042 100.1572
6235.177712 69.107 71.0981
6280.360380 68.826 -10.6445
6325.870460 68.406 -58.9868
6371.710325 68.247 -65.6289
6417.882365 68.490 -74.8521
6464.388986 68.894 149.1240
6511.232613 69.096 132.9253
6558.415689 68.783 145.8511
6605.940673 68.311 -142.8379
6653.810042 68.336 -55.9272
6702.026292 68.312 -45.3223
6750.591937 67.798 -16.7188
6799.509509 67.454 43.6582
6848.781558 67.478 105.3535
6898.410653 67.612 136.0801
6948.399380 67.401 172.5889
6998.750346 66.941 -131.2119
7049.466176 67.126 -63.5317
7100.549514 67.735 -24.7041
7152.003023 67.976 20.3799
7203.829385 67.601 84.6885
7256.031302 66.761 143.0171
7308.611496 66.422 -168.7930
7361.572708 66.748 -120.2563
7414.917698 66.981 -73.2075
7468.649249 67.082 -13.7759
7522.770160 67.188 34.4658
7577.283253 67.093 104.1426
7632.191371 66.962 170.5459
7687.497376 66.967 -145.5190
7743.204151 66.719 -97.5171
7799.314600 66.625 -5.1851
7855.831649 67.163 40.0742
7912.758244 67.338 66.4648
7970.097352 66.587 154.2168
8027.851962 65.207 -137.1104
8086.025087 63.987 -91.4419
8144.619758 63.645 17.2964
8203.639030 64.090 67.7188
8263.085980 64.598 123.1943
8322.963708 65.416 -128.9658
8383.275334 66.314 -86.4575
8444.024002 66.320 -31.2852
8505.212881 65.639 83.3457
8566.845160 65.248 139.0181
8628.924051 65.593 -155.9292
8691.452792 66.308 -98.4717
8754.434642 66.519 -51.8960
8817.872884 66.066 9.2637
8881.770826 65.515 86.4727
8946.131799 65.367 138.4292
9010.959157 65.116 -174.3330
9076.256282 64.806 -102.5659
9142.026576 64.795 -24.4048
9208.273470 64.773 43.3076
9275.000415 64.363 122.6372
9342.210891 63.524 -166.2354
9409.908403 63.031 -83.6494
9478.096478 63.346 3.4492
9546.778672 63.521 66.6416
9615.958566 63.261 159.2080
9685.639765 63.342 -137.7710
9755.825904 63.578 -52.9131
9826.520640 63.600 27.6948
9897.727659 63.393 106.7861
9969.450674 63.463 179.2642
10041.693423 63.589 -118.7070
10114.459673 63.164 -54.5171
10187.753217 62.683 25.0029
10261.577877 62.624 116.5396
10335.937500 62.290 -161.6309
10410.835964 61.921 -72.4600
10486.277173 62.215 4.9250
10562.265060 62.624 86.2065
10638.803587 62.495 148.7473
10715.896743 61.991 -131.7537
10793.548548 61.833 -40.3713
10871.763050 62.022 49.8152
10950.544327 62.051 148.4983
11029.896485 61.836 -134.3884
11109.823662 61.808 -41.4500
11190.330024 61.785 27.9268
11271.419768 61.345 135.9944
11353.097122 60.810 -142.7229
11435.366344 60.501 -55.8372
11518.231722 60.360 37.6387
11601.697577 60.155 122.5256
11685.768261 59.956 -151.0684
11770.448155 60.018 -53.1116
11855.741674 60.253 56.6675
11941.653265 60.370 131.4717
12028.187408 60.370 -138.3018
12115.348612 60.068 -45.7439
12203.141422 59.476 90.7550
12291.570415 59.336 -166.2666
12380.640201 59.789 -72.4531
12470.355424 59.715 7.0688
12560.720760 59.361 94.2234
12651.740920 59.354 177.3606
12743.420650 59.477 -83.6464
12835.764729 59.467 6.8845
12928.777972 59.459 121.0957
13022.465227 59.397 -136.2661
13116.831378 58.857 -32.6957
13211.881345 58.305 59.1311
13307.620084 57.797 150.7241
13404.052584 57.019 -113.1362
13501.183875 56.543 9.0602
13599.019019 56.447 138.4437
13697.563116 56.494 -104.5451
13796.821305 56.843 -6.2786
13896.798760 57.326 92.6805
13997.500692 57.551 -165.1587
14098.932352 57.411 -63.2837
14201.099028 57.127 52.3196
14304.006046 56.874 159.7275
14407.658770 56.620 -89.7521
14512.062604 56.469 24.3965
14617.222992 56.354 155.6365
14723.145416 56.053 -75.7666
14829.835397 55.733 32.0760
14937.298497 55.240 140.8671
15045.540320 54.442 -115.6405
15154.566507 53.674 -4.2537
15264.382743 53.403 116.5291
15374.994752 53.475 -118.0277
15486.408302 53.707 6.8218
15598.629201 54.055 122.4087
15711.663298 54.115 -125.7119
15825.516487 53.709 -17.0889
15940.194703 52.766 101.5166
16055.703925 51.700 -118.5425
16172.050174 50.997 23.2949
16289.239516 51.054 143.3552
16407.278061 51.953 -97.1948
16526.171961 53.171 19.7664
16645.927415 53.876 131.7512
16766.550667 53.794 -115.9124
16888.048005 53.768 -0.8062
17010.425762 53.813 121.1951
17133.690320 53.578 -102.8987
17257.848103 53.214 86.1318
17382.905584 52.873 -115.2109
17508.869284 52.541 6.1836
17635.745768 52.201 126.0974
17763.541652 52.091 -99.5637
17892.263597 51.581 37.2773
18021.918315 50.627 171.0581
18152.512564 49.583 -54.0742
18284.053153 48.710 70.5762
18416.546939 47.688 -172.5791
18550.000830 46.360 -48.5757
18684.421783 45.166 102.3130
18819.816805 44.414 -98.3506
18956.192956 44.004 39.4458
19093.557344 43.422 -179.1743
19231.917131 42.451 -50.4800
19371.279531 41.367 66.2563
19511.651807 40.304 -176.9897
19653.041280 39.169 -55.1489
19795.455318 38.303 73.0249
19938.901348 38.111 -142.7646
