* Measurement data measured by REW V5.31
* Source: Scarlett 2i4 USB, MICROPHONE, R, volume: no control. Timing signal peak level -26.4 dBFS, measurement signal peak level -15.0 dBFS
* Format: 512k Log Swept Sine, 1 sweep at -18.0 dBFS using an acoustic timing reference
* Dated: Apr 15, 2024 9:35:02 AM
* REW Settings:
*  C-weighting compensation: Off
*  Target level: 75.0 dB
* Note: ; Delay -1.6645 ms (-571 mm, -(1 ft 10.48 in)) using estimated IR delay relative to Acoustic reference played from SPEAKER L with no timing offset
* Measurement: empty-p3-c
* Smoothing: 1/48 octave
* Frequency Step: 96 ppo
* Start Frequency: 10.093689 Hz
*
* Freq(Hz) SPL(dB) Phase(degrees)
10.093689 30.898 -34.0759
10.166832 30.710 -40.8412
10.240505 30.481 -48.0882
10.314712 30.242 -55.5725
10.389457 29.996 -62.9025
10.464743 29.717 -69.7379
10.540575 29.394 -76.8264
10.616956 29.028 -84.2599
10.693891 28.601 -91.7217
10.771383 28.097 -98.6596
10.849437 27.540 -105.3270
10.928057 26.919 -112.3539
11.007246 26.169 -119.6299
11.087009 25.207 -126.6469
11.167350 23.933 -132.9861
11.248273 22.347 -139.5679
11.329783 20.620 -146.7919
11.411883 18.974 -154.6213
11.494578 17.498 -162.2884
11.577873 16.078 -172.3381
11.661771 14.979 113.6230
11.746277 14.710 20.2607
11.831395 15.768 8.6665
11.917130 17.977 -0.1113
12.003487 20.504 -6.9326
12.090469 22.639 -12.3298
12.178081 24.070 -17.3468
12.266329 25.056 -22.9088
12.355216 25.763 -28.1572
12.444747 26.306 -32.5662
12.534926 26.714 -36.6958
12.625760 26.948 -41.1024
12.717251 27.018 -45.1855
12.809406 26.940 -48.3818
12.902228 26.714 -51.2723
12.995723 26.324 -53.9464
13.089895 25.740 -55.8986
13.184750 24.904 -56.5737
13.280292 23.798 -56.0195
13.376526 22.612 -53.6025
13.473458 21.566 -48.0511
13.571093 20.624 -37.1973
13.669434 19.939 -18.5125
13.768489 19.980 5.9086
13.868261 21.157 26.8292
13.968756 23.217 40.3460
14.069979 25.482 48.3506
14.171936 27.498 53.0522
14.274632 29.334 56.0844
14.378072 31.069 57.7045
14.482261 32.704 58.0273
14.587206 34.236 57.8962
14.692910 35.675 57.2589
14.799381 37.039 55.7371
14.906624 38.333 53.6878
15.014643 39.551 51.4229
15.123446 40.696 48.6143
15.233036 41.767 45.2725
15.343421 42.762 41.7475
15.454606 43.682 37.9488
15.566596 44.527 33.7502
15.679398 45.296 29.3266
15.793018 45.990 24.8114
15.907460 46.608 20.0500
16.022732 47.150 15.0380
16.138840 47.616 10.0677
16.255788 48.005 4.9613
16.373585 48.317 -0.3734
16.492234 48.550 -5.5337
16.611744 48.703 -10.7847
16.732119 48.774 -16.1672
16.853367 48.763 -21.2343
16.975494 48.665 -26.3461
17.098505 48.481 -31.4038
17.222408 48.206 -35.9927
17.347209 47.838 -40.4575
17.472914 47.380 -44.5662
17.599530 46.829 -47.9692
17.727063 46.192 -50.8091
17.855521 45.499 -52.8519
17.984909 44.746 -53.6465
18.115235 44.006 -53.2384
18.246506 43.376 -51.7021
18.378727 42.876 -48.6021
18.511907 42.596 -45.0001
18.646052 42.601 -41.3608
18.781169 42.821 -38.1072
18.917265 43.160 -36.1171
19.054347 43.599 -35.2269
19.192423 44.033 -35.2236
19.331499 44.415 -36.1481
19.471583 44.739 -37.5820
19.612682 44.984 -39.1478
19.754804 45.158 -40.9521
19.897956 45.280 -42.4532
20.042144 45.359 -43.6960
20.187378 45.435 -44.5660
20.333664 45.538 -44.8701
20.481010 45.694 -44.8071
20.629424 45.945 -44.5115
20.778913 46.293 -44.0316
20.929486 46.734 -43.8926
21.081150 47.260 -43.9935
21.233912 47.826 -44.6685
21.387782 48.412 -45.8833
21.542767 48.984 -47.5457
21.698874 49.518 -49.6949
21.856113 50.001 -52.0850
22.014492 50.418 -54.6560
22.174018 50.770 -57.2814
22.334700 51.055 -59.7319
22.496546 51.280 -62.0298
22.659566 51.457 -63.8673
22.823766 51.602 -65.3215
22.989157 51.745 -66.1846
23.155745 51.904 -66.5257
23.323542 52.119 -66.4138
23.492554 52.402 -65.9215
23.662790 52.769 -65.4009
23.834261 53.213 -64.8981
24.006973 53.710 -64.7775
24.180938 54.242 -64.9795
24.356163 54.770 -65.6362
24.532658 55.279 -66.6110
24.710431 55.746 -67.8195
24.889493 56.172 -69.1228
25.069853 56.554 -70.3568
25.251519 56.911 -71.4326
25.434502 57.260 -72.2247
25.618811 57.630 -72.7940
25.804456 58.042 -73.1089
25.991445 58.517 -73.4683
26.179790 59.057 -73.9028
26.369500 59.649 -74.7889
26.560584 60.274 -76.1041
26.753053 60.899 -78.0392
26.946917 61.500 -80.4691
27.142185 62.055 -83.4047
27.338869 62.550 -86.6321
27.536977 62.978 -90.1217
27.736522 63.340 -93.6353
27.937512 63.645 -97.1340
28.139959 63.904 -100.4865
28.343872 64.138 -103.6573
28.549264 64.362 -106.6431
28.756143 64.593 -109.5017
28.964522 64.837 -112.3296
29.174411 65.099 -115.2162
29.385821 65.364 -118.2956
29.598763 65.622 -121.5842
29.813248 65.851 -125.1364
30.029287 66.035 -128.8428
30.246891 66.161 -132.6913
30.466073 66.221 -136.4908
30.686842 66.215 -140.1244
30.909212 66.147 -143.4973
31.133193 66.033 -146.4071
31.358797 65.893 -148.8157
31.586035 65.749 -150.6376
31.814921 65.632 -151.8861
32.045465 65.564 -152.6456
32.277680 65.567 -152.9973
32.511577 65.653 -153.1459
32.747169 65.825 -153.2717
32.984469 66.077 -153.5175
33.223488 66.396 -154.0453
33.464239 66.762 -154.9722
33.706735 67.154 -156.3162
33.950987 67.553 -158.0794
34.197010 67.940 -160.2014
34.444816 68.310 -162.5781
34.694417 68.662 -165.1384
34.945827 69.005 -167.8112
35.199059 69.354 -170.6014
35.454126 69.718 -173.6093
35.711041 70.098 -176.9468
35.969818 70.484 179.2399
36.230470 70.850 174.8010
36.493011 71.163 169.7367
36.757455 71.392 164.1124
37.023814 71.506 158.0201
37.292104 71.482 151.6571
37.562338 71.306 145.3451
37.834530 70.979 139.3445
38.108695 70.512 133.9245
38.384846 69.937 129.3878
38.662999 69.302 125.9969
38.943167 68.680 123.7592
39.225365 68.136 122.4099
39.509608 67.704 121.5092
39.795911 67.372 120.5743
40.084289 67.095 119.2741
40.374756 66.807 117.5621
40.667328 66.457 115.6707
40.962020 66.023 113.9599
41.258848 65.510 112.7686
41.557827 64.943 112.3712
41.858972 64.359 112.9548
42.162299 63.800 114.6230
42.467824 63.313 117.4357
42.775564 62.957 121.4376
43.085533 62.816 126.5703
43.397749 62.985 132.4207
43.712227 63.514 138.0403
44.028983 64.356 142.2477
44.348036 65.380 144.2454
44.669400 66.444 143.8779
44.993093 67.438 141.4357
45.319131 68.293 137.3782
45.647532 68.970 132.1761
45.978313 69.454 126.2590
46.311491 69.743 120.0095
46.647083 69.846 113.7680
46.985107 69.782 107.8352
47.325581 69.579 102.4627
47.668521 69.275 97.8344
48.013947 68.912 94.0412
48.361876 68.532 91.0636
48.712326 68.172 88.7765
49.065315 67.855 86.9866
49.420863 67.589 85.4899
49.778987 67.372 84.1208
50.139706 67.194 82.7709
50.503039 67.045 81.3770
50.869005 66.914 79.8964
51.237623 66.790 78.2993
51.608912 66.659 76.5896
51.982891 66.510 74.8455
52.359580 66.342 73.2288
52.739000 66.178 71.9050
53.121168 66.059 70.8626
53.506106 66.026 69.7443
53.893833 66.071 67.9348
54.284370 66.118 64.9044
54.677737 66.049 60.5760
55.073955 65.750 55.4393
55.473043 65.147 50.4657
55.875024 64.237 46.9996
56.279917 63.135 46.5616
56.687745 62.112 50.1061
57.098527 61.500 56.3270
57.512287 61.392 62.0275
57.929045 61.576 65.5275
58.348822 61.832 67.3867
58.771642 62.090 68.6320
59.197525 62.370 69.6076
59.626495 62.671 70.1258
60.058573 62.958 70.1423
60.493782 63.210 70.0133
60.932145 63.457 70.1602
61.373685 63.754 70.6646
61.818424 64.141 71.3268
62.266386 64.640 72.0152
62.717593 65.289 72.6911
63.172071 66.125 72.9303
63.629842 67.116 71.7582
64.090930 68.132 68.4693
64.555359 69.019 63.1493
65.023154 69.675 56.6667
65.494339 70.094 50.1881
65.968938 70.389 45.0047
66.446976 70.784 41.8352
66.928478 71.531 39.9731
67.413469 72.682 37.1232
67.901975 74.029 31.3175
68.394021 75.298 22.1416
68.889632 76.315 10.4594
69.388835 77.010 -2.5411
69.891655 77.389 -15.9362
70.398118 77.511 -28.8573
70.908252 77.457 -40.9588
71.422083 77.308 -52.1528
71.939636 77.111 -62.6456
72.460941 76.877 -72.5433
72.986023 76.614 -81.7335
73.514909 76.373 -89.9720
74.047629 76.239 -97.3165
74.584208 76.290 -104.3275
75.124676 76.523 -112.0014
75.669061 76.842 -121.1132
76.217390 77.097 -131.9243
76.769692 77.154 -144.0629
77.325997 76.917 -156.8396
77.886333 76.347 -169.1976
78.450730 75.463 179.8989
79.019216 74.361 171.5083
79.591822 73.229 166.2236
80.168577 72.309 163.5530
80.749512 71.766 161.6997
81.334656 71.549 158.5811
81.924040 71.433 153.4971
82.517696 71.213 147.1316
83.115653 70.808 140.7063
83.717943 70.259 135.2729
84.324598 69.679 131.1029
84.935649 69.154 127.6532
85.551128 68.689 124.2064
86.171066 68.230 120.5065
86.795497 67.729 116.6340
87.424453 67.146 112.3757
88.057967 66.385 107.1899
88.696071 65.255 101.2363
89.338800 63.566 96.9708
89.986185 61.520 103.0391
90.638262 60.656 137.3837
91.295065 62.282 165.2251
91.956626 64.875 170.1021
92.622982 67.486 168.4227
93.294166 70.030 163.3674
93.970214 72.383 153.6729
94.651161 74.340 138.9504
95.337042 75.730 120.1774
96.027894 76.442 98.7727
96.723752 76.411 76.2483
97.424652 75.613 54.2786
98.130631 74.097 34.7980
98.841726 72.041 19.6136
99.557974 69.787 8.8644
100.279412 67.724 0.0247
101.006078 66.064 -9.3375
101.738010 64.888 -19.8363
102.475245 64.314 -31.7583
103.217823 64.459 -45.3735
103.965782 65.303 -61.2800
104.719161 66.515 -80.4663
105.477999 67.635 -102.5319
106.242336 68.391 -125.3889
107.012212 68.774 -146.6753
107.787666 68.954 -165.1257
108.568740 69.103 178.7604
109.355474 69.227 163.4259
110.147909 69.201 148.0480
110.946086 68.933 132.6543
111.750047 68.378 117.0608
112.559834 67.441 100.9125
113.375489 65.969 84.8137
114.197055 63.840 70.5052
115.024574 61.011 60.3730
115.858089 57.517 58.0339
116.697645 53.609 73.4569
117.543284 50.414 117.9747
118.395051 49.445 144.1266
119.252990 49.647 151.4410
120.117147 50.201 165.0958
120.987565 52.059 -162.2374
121.864291 54.930 -142.8228
122.747370 57.724 -139.0107
123.636848 60.019 -142.1995
124.532771 61.751 -148.7468
125.435187 63.133 -154.9476
126.344142 64.634 -157.9667
127.259684 66.546 -159.9734
128.181860 68.563 -167.2422
129.110718 70.230 179.3285
130.046308 71.441 162.9216
130.988677 72.258 144.4633
131.937875 72.601 123.1256
132.893951 72.375 100.0431
133.856956 71.954 78.1116
134.826938 72.322 56.4912
135.803950 73.733 28.4399
136.788041 75.289 -7.0791
137.779264 76.398 -44.2482
138.777669 76.973 -78.5575
139.783309 77.021 -108.7657
140.796237 76.477 -134.2507
141.816504 75.419 -152.4712
142.844165 74.374 -161.4008
143.879273 73.963 -166.3052
144.921881 74.010 -174.1290
145.972045 73.933 175.6746
147.029819 73.506 166.6221
148.095257 72.886 161.0228
149.168417 72.368 158.5602
150.249353 72.057 155.9806
151.338121 71.727 151.8696
152.434780 71.243 149.4174
153.539385 70.923 152.0197
154.651995 71.332 158.4615
155.772667 72.602 162.7776
156.901460 74.278 160.9395
158.038432 75.855 152.5305
159.183644 76.955 138.0233
160.337154 77.272 119.1536
161.499023 76.666 99.7377
162.669312 75.241 83.3147
163.848081 73.222 70.6710
165.035392 70.754 61.4321
166.231306 67.899 55.8687
167.435887 64.776 53.5844
168.649196 62.177 48.3969
169.871298 62.718 -63.8398
171.102255 66.206 -137.8464
172.342133 69.588 -157.1719
173.590995 71.834 -179.7947
174.848907 72.771 156.2864
176.115934 72.654 136.6118
177.392143 72.024 122.4272
178.677599 71.128 108.8977
179.972371 69.717 94.7222
181.276525 67.568 83.8577
182.590129 65.255 88.9282
183.913252 65.373 154.8142
185.245964 68.331 172.7864
186.588332 71.526 163.6479
187.940428 74.028 144.8423
189.302322 75.543 117.8000
190.674085 75.851 84.7798
192.055788 74.706 50.5435
193.447503 72.128 31.3545
194.849303 69.094 57.9487
196.261262 67.590 50.4126
197.683452 67.462 19.5122
199.115948 67.491 -13.6484
200.558824 68.193 -39.0786
202.012156 70.296 -55.2007
203.476019 72.886 -71.6733
204.950490 74.807 -95.7009
206.435646 75.856 -120.3657
207.931564 76.461 -141.4177
209.438322 76.642 -163.4988
210.955998 75.941 172.9338
212.484672 74.109 154.1697
214.024424 71.551 155.1809
215.575333 70.509 -165.7917
217.137481 72.783 -139.6389
218.710948 75.794 -142.1250
220.295818 78.027 -159.5002
221.892172 79.288 177.9536
223.500094 79.526 152.7605
225.119668 78.523 128.8521
226.750978 76.468 119.4888
228.394109 74.399 121.0579
230.049147 72.750 107.6431
231.716178 70.756 88.2905
233.395289 68.811 69.4851
235.086567 68.557 -135.6946
236.790102 69.797 -154.4863
238.505980 71.347 -168.4834
240.234293 72.726 179.0122
241.975130 74.020 -175.1895
243.728581 75.237 -169.0005
245.494739 75.628 172.3347
247.273695 74.882 153.3904
249.065542 73.294 145.6738
250.870374 71.864 155.8093
252.688284 71.825 167.0916
254.519367 72.847 169.0876
256.363720 74.013 164.3171
258.221437 75.126 157.8999
260.092616 75.997 143.5610
261.977354 76.234 120.9336
263.875750 76.069 113.9834
265.787903 76.209 -172.9788
267.713911 76.559 168.9043
269.653877 76.515 145.7329
271.607900 75.555 126.1030
273.576083 73.766 122.2444
275.558528 72.182 130.3325
277.555338 71.202 128.5417
279.566619 70.493 132.0317
281.592474 70.402 137.3787
283.633009 71.143 144.5901
285.688331 72.299 144.9895
287.758546 72.894 133.3872
289.843763 72.909 138.5637
291.944090 72.628 137.8574
294.059638 71.791 126.7861
296.190515 70.753 121.1157
298.336833 70.441 133.8118
300.498705 71.346 142.4143
302.676243 72.135 124.2537
304.869559 71.668 100.6279
307.078770 70.385 122.7935
309.303989 70.492 168.6438
311.545334 71.913 151.9810
313.802919 72.663 121.5137
316.076865 72.317 82.8379
318.367288 71.724 1.2686
320.674309 71.839 -121.9019
322.998047 72.146 -161.0615
325.338624 72.046 173.8782
327.696162 71.512 158.5076
330.070783 70.607 146.8489
332.462612 69.832 155.8015
334.871773 70.256 173.3074
337.298392 70.775 161.3542
339.742595 70.263 148.1411
342.204510 69.507 151.6819
344.684265 69.825 157.7429
347.181989 70.886 152.6562
349.697813 71.550 138.0022
352.231868 71.035 122.3474
354.784285 69.556 117.7144
357.355198 68.020 108.0813
359.944741 67.262 115.3784
362.553049 68.052 -177.3877
365.180258 69.337 163.8159
367.826505 69.975 138.0703
370.491927 69.772 108.9534
373.176665 69.158 83.0483
375.880856 69.469 73.0422
378.604644 70.792 21.0698
381.348169 72.489 -47.9941
384.111575 74.403 -97.8179
386.895006 75.474 -143.3831
389.698607 74.893 -179.7600
392.522524 73.125 173.7695
395.366904 71.775 154.1199
398.231895 71.739 98.7466
401.117648 72.067 -52.3728
404.024312 71.408 -110.2573
406.952038 69.663 -133.4209
409.900981 68.577 -129.5383
412.871292 69.380 -124.3958
415.863128 70.542 -141.6228
418.876643 71.263 -158.1091
421.911996 71.858 -171.7434
424.969344 72.098 163.5957
428.048847 72.187 -110.5134
431.150666 72.294 -131.3052
434.274961 71.880 -152.6523
437.421897 71.364 -113.1838
440.591636 71.806 -122.5920
443.784345 73.227 -144.6819
447.000189 74.972 -148.0496
450.239337 76.229 -112.0220
453.501956 76.658 -137.7871
456.788219 76.358 -173.1309
460.098294 75.141 147.7930
463.432356 73.395 98.5935
466.790578 73.086 6.0647
470.173135 74.962 -52.6023
473.580203 77.120 -87.4438
477.011961 78.350 -121.4387
480.468586 78.524 -155.0933
483.950259 77.760 173.8936
487.457163 76.346 147.9263
490.989478 74.724 130.1038
494.547390 73.247 98.1885
498.131084 71.749 -78.5791
501.740748 70.437 -153.7490
505.376568 69.687 170.7910
509.038735 69.536 123.0156
512.727439 69.854 -27.3184
516.442874 70.599 -87.1401
520.185232 71.424 -124.5063
523.954708 72.056 -164.1812
527.751500 73.187 136.5278
531.575805 75.154 -30.9932
535.427822 76.127 -91.7549
539.307753 75.153 -135.5400
543.215800 73.124 -147.3906
547.152165 72.114 -156.0410
551.117055 72.383 -179.6177
555.110677 72.874 -153.2144
559.133237 73.628 -166.9282
563.184947 74.607 144.9429
567.266018 75.223 70.5239
571.376661 74.652 -38.8032
575.517092 73.105 -128.0303
579.687526 72.194 154.5249
583.888181 71.793 64.6831
588.119275 70.763 -5.6440
592.381030 70.634 -48.2490
596.673667 72.581 -87.1196
600.997410 74.446 -141.1826
605.352485 74.665 153.2686
609.739119 73.417 102.2983
614.157540 72.272 78.8335
618.607979 71.986 78.9751
623.090667 72.134 71.6470
627.605839 72.546 48.5986
632.153730 72.620 25.0220
636.734576 72.563 7.4775
641.348617 73.376 3.2705
645.996094 74.818 0.4321
650.677248 75.924 -16.9424
655.392323 76.684 -36.0913
660.141566 76.609 -61.3833
664.925224 75.248 -79.2339
669.743546 73.416 -82.0176
674.596784 72.830 -78.4375
679.485191 74.067 -78.2935
684.409020 75.396 -99.3799
689.368530 75.282 -132.9517
694.363979 73.426 -160.4917
699.395626 70.965 -174.6406
704.463736 69.895 -164.0518
709.568570 70.317 -159.5010
714.710396 70.697 178.8174
719.889483 70.880 155.6274
725.106099 71.497 131.8721
730.360516 73.112 101.1968
735.653010 74.872 52.9834
740.983855 75.719 -19.3374
746.353329 75.993 -124.3750
751.761713 76.513 161.0205
757.209288 77.224 162.3872
762.696339 77.434 121.3389
768.223151 76.705 70.4839
773.790013 75.615 22.2705
779.397214 74.740 -28.4272
785.045047 75.075 -103.9595
790.733808 76.319 170.7964
796.463791 77.270 112.6943
802.235296 77.328 64.0049
808.048623 76.496 22.9688
813.904077 75.535 -13.8452
819.801961 74.758 -11.7046
825.742584 74.659 36.7290
831.726255 75.535 8.3032
837.753287 75.989 -31.6606
843.823992 75.436 -70.2529
849.938689 74.885 -98.5532
856.097695 75.061 -123.5811
862.301332 75.628 -148.9946
868.549922 76.440 -176.8955
874.843793 76.492 145.2925
881.183272 75.063 108.3066
887.568689 73.668 73.2134
894.000378 74.061 6.7251
900.478673 74.760 -103.7212
907.003913 74.122 -163.9077
913.576437 72.511 160.4810
920.196588 71.178 150.8203
926.864712 70.902 169.7993
933.581156 71.769 170.7666
940.346270 73.320 153.1138
947.160407 74.368 122.8145
954.023921 73.767 92.6240
960.937172 72.349 73.0396
967.900519 72.428 44.9731
974.914325 74.035 -7.1201
981.978956 75.640 -89.4648
989.094780 76.487 174.5112
996.262169 76.013 85.8765
1003.481495 74.409 20.5815
1010.753136 72.935 -22.0566
1018.077470 72.629 -55.4321
1025.454879 73.921 -86.8408
1032.885748 75.266 -122.6602
1040.370463 75.447 -153.4707
1047.909417 74.664 -149.8516
1055.503000 74.208 -149.9629
1063.151610 74.266 179.3076
1070.855645 73.560 139.2793
1078.615506 72.074 122.4336
1086.431599 72.480 -122.2617
1094.304330 74.636 -160.8867
1102.234110 76.255 149.9854
1110.221353 76.363 89.1680
1118.266475 75.361 20.1914
1126.369895 74.573 -31.0918
1134.532035 74.468 39.5391
1142.753322 74.864 -26.3350
1151.034184 74.614 -86.7793
1159.375052 72.663 -128.9873
1167.776361 69.959 -126.3887
1176.238550 68.726 -135.4775
1184.762060 68.453 179.7207
1193.347334 68.680 120.7324
1201.994821 69.924 63.6787
1210.704971 71.762 23.0283
1219.478238 73.110 -17.5684
1228.315080 74.108 -50.3418
1237.215957 74.611 -93.3447
1246.181334 73.581 -151.3320
1255.211678 71.795 2.8779
1264.307459 70.695 -59.2715
1273.469152 70.455 -111.2422
1282.697235 70.547 -165.7314
1291.992188 70.056 139.0342
1301.354495 68.873 95.4678
1310.784647 68.425 68.4102
1320.283132 69.637 148.2461
1329.850448 70.841 120.4541
1339.487093 70.731 72.8311
1349.193569 69.598 37.6162
1358.970381 69.210 10.8604
1368.818041 69.747 9.1133
1378.737061 69.814 1.5938
1388.727958 69.180 -80.2021
1398.791253 69.047 -161.5098
1408.927471 69.466 151.2715
1419.137140 69.756 127.8018
1429.420793 70.394 113.0762
1439.778965 71.114 85.2061
1450.212197 72.037 52.6934
1460.721033 72.910 11.0547
1471.306019 72.807 -99.8037
1481.967709 71.853 99.9492
1492.706658 71.042 -69.0381
1503.523426 70.783 -134.1504
1514.418576 70.702 -176.9316
1525.392678 70.771 170.5596
1536.446302 70.915 -147.2715
1547.580025 71.014 -164.4609
1558.794428 71.022 -177.2695
1570.090095 71.233 177.2393
1581.467615 72.184 172.2422
1592.927581 73.518 -165.9482
1604.470591 74.239 -133.5869
1616.097246 74.345 -132.2188
1627.808153 74.688 -149.4971
1639.603922 74.754 -171.9980
1651.485168 73.793 175.4971
1663.452510 72.701 -179.2012
1675.506573 72.235 -179.0488
1687.647984 72.387 -169.2783
1699.877377 73.450 -148.2646
1712.195390 75.094 -148.1943
1724.602663 76.126 -161.8770
1737.099845 76.147 -158.4150
1749.687587 75.536 -134.0918
1762.366544 74.915 -153.7510
1775.137379 74.329 176.7100
1788.000756 74.228 152.4775
1800.957346 74.819 68.7402
1814.007826 75.120 -20.3027
1827.152874 74.758 -47.7725
1840.393177 74.349 -57.9482
1853.729425 74.581 -64.4297
1867.162312 75.540 -66.9219
1880.692540 76.407 -69.5039
1894.320813 76.477 -81.3281
1908.047843 75.735 -92.8223
1921.874344 74.589 -91.9707
1935.801038 74.293 -90.6484
1949.828650 75.334 -90.9463
1963.957912 76.646 -98.1865
1978.189561 76.993 -123.1064
1992.524338 76.433 -38.6543
2006.962991 76.283 -30.7021
2021.506272 77.075 -42.6719
2036.154940 77.398 -58.3389
2050.909758 76.992 -68.0146
2065.771495 76.346 -89.5039
2080.740927 76.050 -120.9854
2095.818833 75.628 -167.5547
2111.006001 75.468 145.6123
2126.303220 76.667 113.6318
2141.711290 78.021 90.9863
2157.231013 78.460 72.4287
2172.863198 78.294 56.3799
2188.608660 78.030 39.3877
2204.468221 77.299 25.9365
2220.442706 76.642 17.1006
2236.532950 76.256 1.7480
2252.739789 75.893 -10.9766
2269.064070 75.309 33.4697
2285.506644 74.965 79.2646
2302.068367 75.606 69.5947
2318.750104 76.386 36.1914
2335.552723 76.751 -7.8721
2352.477101 76.771 -63.6641
2369.524119 76.222 -124.5215
2386.694668 75.415 -179.7021
2403.989641 74.529 157.9414
2421.409941 73.747 -141.0938
2438.956476 73.609 -133.7998
2456.630160 74.007 -109.7363
2474.431915 74.242 -131.8037
2492.362668 74.134 -159.3047
2510.423356 74.139 -143.6250
2528.614918 74.679 -116.5303
2546.938304 75.380 -134.4307
2565.394469 75.906 -164.3545
2583.984375 75.627 148.6826
2602.708991 74.534 92.6592
2621.569293 73.805 47.5361
2640.566265 74.375 30.6494
2659.700897 75.174 20.2432
2678.974186 75.811 6.1084
2698.387137 76.124 -15.3350
2717.940763 75.674 -47.3594
2737.636082 75.632 -148.6826
2757.474121 76.894 117.0205
2777.455915 78.144 84.5420
2797.582506 78.646 62.3086
2817.854942 78.740 41.9629
2838.274281 78.115 20.6729
2858.841586 77.069 11.4697
2879.557931 77.053 7.0000
2900.424394 77.695 -119.5156
2921.442065 77.564 167.5898
2942.612039 76.643 136.8916
2963.935418 75.477 121.7510
2985.413316 74.527 147.8330
3007.046852 74.407 179.6328
3028.837153 74.833 178.5234
3050.785356 75.603 174.9385
3072.892604 76.184 167.1846
3095.160050 76.242 168.8086
3117.588856 75.890 -142.2354
3140.180190 75.854 -131.0479
3162.935230 76.187 -134.4873
3185.855163 76.093 -127.9336
3208.941182 75.248 -121.5938
3232.194493 74.476 -106.5176
3255.616307 74.379 -85.5176
3279.207844 74.560 -72.5684
3302.970336 75.358 -53.8301
3326.905021 76.281 -54.7031
3351.013146 76.549 -66.6201
3375.295969 75.811 -78.9316
3399.754755 75.009 -85.0557
3424.390779 74.897 49.7373
3449.205326 75.817 44.8125
3474.199690 76.719 30.1494
3499.375173 76.752 19.4619
3524.733088 76.000 9.7676
3550.274757 75.014 20.4473
3576.001511 74.532 75.9004
3601.914692 74.380 76.9990
3628.015651 74.273 70.6455
3654.305748 74.458 58.7891
3680.786354 75.261 31.4717
3707.458849 76.642 -155.4951
3734.324624 77.302 170.5010
3761.385080 76.649 142.5361
3788.641627 75.520 152.9150
3816.095686 75.099 -138.5723
3843.748688 74.858 -141.0322
3871.602076 74.430 -143.2861
3899.657300 74.640 -144.5215
3927.915825 74.786 -150.3330
3956.379122 74.324 -154.4766
3985.048676 74.229 -158.6572
4013.925981 74.625 162.4424
4043.012544 74.809 92.1338
4072.309879 74.806 60.0010
4101.819515 74.295 49.3076
4131.542990 73.506 41.1055
4161.481854 73.445 34.1768
4191.637667 73.493 18.5576
4222.012001 73.164 -5.3477
4252.606441 73.355 -40.2832
4283.422580 73.902 -80.3447
4314.462026 74.030 -112.2295
4345.726396 74.301 -130.0225
4377.217321 74.955 -130.7285
4408.936442 75.079 -122.7754
4440.885413 74.649 -120.6797
4473.065899 74.331 -116.9121
4505.479579 73.808 -2.0215
4538.128141 73.319 -2.8857
4571.013288 72.950 -11.1748
4604.136735 72.855 -3.5469
4637.500207 73.792 56.0771
4671.105446 75.209 62.5498
4704.954201 75.580 51.2920
4739.048239 74.726 50.2246
4773.389336 73.969 74.1650
4807.979283 74.064 102.7246
4842.819883 74.071 107.1133
4877.912952 73.541 118.1357
4913.260320 73.242 167.5352
4948.863830 73.918 -172.7441
4984.725337 74.717 -168.6230
5020.846712 74.994 -152.6387
5057.229836 75.368 -136.5977
5093.876609 75.744 -137.5879
5130.788938 75.698 -132.8486
5167.968750 75.682 -54.7490
5205.417982 75.926 -53.5225
5243.138586 75.786 -65.2520
5281.132530 75.100 -51.1221
5319.401793 74.941 14.1455
5357.948371 75.241 13.0518
5396.774274 75.084 14.5449
5435.881525 74.745 76.6436
5475.272163 74.307 84.3721
5514.948243 73.854 84.5527
5554.911831 73.648 86.3721
5595.165012 73.643 88.3906
5635.709884 73.932 -172.0693
5676.548561 74.027 -143.0938
5717.683172 73.925 -119.4131
5759.115861 74.075 -127.5215
5800.848789 74.247 -143.7451
5842.884130 74.215 -35.3867
5885.224077 74.247 -45.0957
5927.870837 73.959 120.9766
5970.826633 73.318 102.5010
6014.093704 72.740 92.3223
6057.674306 72.444 110.2207
6101.570711 72.675 136.7959
6145.785208 72.847 148.5537
6190.320101 73.091 -131.8711
6235.177712 73.390 -108.8887
6280.360380 73.663 -101.4746
6325.870460 73.679 -99.1318
6371.710325 73.396 -92.5635
6417.882365 73.236 -67.9941
6464.388986 73.446 -16.3154
6511.232613 73.870 28.0244
6558.415689 73.873 39.1025
6605.940673 73.476 56.6621
6653.810042 73.200 76.5654
6702.026292 73.002 100.9717
6750.591937 73.096 131.1074
6799.509509 73.396 152.4814
6848.781558 73.467 179.9297
6898.410653 73.836 -145.0879
6948.399380 74.158 -126.7432
6998.750346 74.027 -108.9473
7049.466176 73.612 -89.6367
7100.549514 73.075 -68.5654
7152.003023 72.682 -32.4844
7203.829385 72.647 15.7578
7256.031302 72.750 32.6406
7308.611496 72.819 48.2197
7361.572708 73.072 89.2256
7414.917698 72.818 109.4863
7468.649249 71.663 150.6494
7522.770160 70.952 -122.8525
7577.283253 70.706 -87.2549
7632.191371 70.500 -62.1025
7687.497376 70.523 -38.5771
7743.204151 70.776 10.8818
7799.314600 71.322 64.6816
7855.831649 71.751 91.3223
7912.758244 71.500 104.9238
7970.097352 71.166 134.2471
8027.851962 71.259 169.2285
8086.025087 71.299 -157.1475
8144.619758 71.895 -112.1621
8203.639030 72.800 -84.4521
8263.085980 73.144 -63.9668
8322.963708 72.631 -46.2061
8383.275334 71.652 -17.7285
8444.024002 71.695 31.5381
8505.212881 72.761 71.0693
8566.845160 73.221 87.7236
8628.924051 72.891 104.1328
8691.452792 72.277 141.3594
8754.434642 71.820 -164.2227
8817.872884 71.701 -123.5371
8881.770826 71.541 -102.5596
8946.131799 71.143 -75.3379
9010.959157 70.713 -45.6846
9076.256282 70.422 46.8057
9142.026576 70.106 87.0049
9208.273470 69.471 117.2178
9275.000415 69.199 160.5918
9342.210891 69.433 -117.5439
9409.908403 69.348 -80.7236
9478.096478 69.311 -38.8887
9546.778672 70.043 9.5293
9615.958566 70.681 42.2773
9685.639765 70.799 81.6494
9755.825904 71.066 120.7812
9826.520640 71.441 151.5742
9897.727659 71.390 179.7305
9969.450674 70.652 -145.9648
10041.693423 70.269 -100.1367
10114.459673 70.539 -59.5991
10187.753217 71.040 -20.0342
10261.577877 71.294 16.2158
10335.937500 70.868 52.6465
10410.835964 70.562 99.4297
10486.277173 70.958 139.8794
10562.265060 71.166 170.6001
10638.803587 70.426 -161.3755
10715.896743 69.226 -99.4766
10793.548548 68.477 -48.2251
10871.763050 68.221 -18.6631
10950.544327 68.361 -16.3447
11029.896485 69.039 -159.4922
11109.823662 69.476 -140.7407
11190.330024 69.835 -92.9194
11271.419768 70.725 -32.9390
11353.097122 71.356 0.6309
11435.366344 70.972 32.0200
11518.231722 70.401 79.4810
11601.697577 70.502 130.1636
11685.768261 70.773 171.6885
11770.448155 70.793 -146.3423
11855.741674 70.531 -102.8662
11941.653265 70.266 -58.7324
12028.187408 70.001 -15.3154
12115.348612 69.434 25.9658
12203.141422 68.719 69.9248
12291.570415 68.337 130.3452
12380.640201 68.253 -170.0986
12470.355424 67.933 -124.9263
12560.720760 67.515 -36.7422
12651.740920 67.694 28.6230
12743.420650 67.840 73.1733
12835.764729 68.297 145.3696
12928.777972 68.964 -158.7964
13022.465227 69.091 -116.3281
13116.831378 69.306 -65.3735
13211.881345 70.115 -12.2993
13307.620084 70.741 33.0269
13404.052584 70.529 78.9492
13501.183875 70.044 132.5840
13599.019019 69.531 -175.9678
13697.563116 68.784 -122.9165
13796.821305 68.270 -64.9863
13896.798760 67.961 -6.1191
13997.500692 67.498 49.3730
14098.932352 66.519 102.9111
14201.099028 65.245 169.2783
14304.006046 64.534 -124.6396
14407.658770 64.351 -45.2949
14512.062604 64.837 36.7358
14617.222992 65.437 96.4170
14723.145416 65.855 158.2681
14829.835397 66.707 -141.1929
14937.298497 67.289 -89.0054
15045.540320 67.416 -32.8315
15154.566507 67.334 22.2900
15264.382743 66.775 74.4487
15374.994752 65.694 130.9795
15486.408302 64.451 -170.0850
15598.629201 62.886 -109.8433
15711.663298 61.169 -39.9668
15825.516487 59.851 35.6929
15940.194703 59.093 116.0010
16055.703925 58.853 -167.1860
16172.050174 58.928 -91.3047
16289.239516 59.400 -15.2266
16407.278061 59.881 52.1523
16526.171961 60.221 119.0474
16645.927415 60.415 -176.0723
16766.550667 60.276 -109.7822
16888.048005 60.074 -40.2676
17010.425762 59.818 27.4004
17133.690320 59.518 96.9043
17257.848103 59.201 164.6543
17382.905584 58.710 -124.7329
17508.869284 58.188 -45.7803
17635.745768 57.571 32.0146
17763.541652 57.122 117.7812
17892.263597 56.852 -168.7988
18021.918315 56.396 -92.1362
18152.512564 56.017 -16.7209
18284.053153 55.458 60.1372
18416.546939 55.076 146.4182
18550.000830 55.086 -133.0930
18684.421783 55.092 -53.1689
18819.816805 55.149 19.1323
18956.192956 54.848 88.5798
19093.557344 54.338 162.0642
19231.917131 53.387 -133.2312
19371.279531 51.696 -59.4199
19511.651807 50.208 10.2297
19653.041280 48.948 -173.9895
19795.455318 47.820 -59.7063
19938.901348 47.263 26.4990
