* Measurement data measured by REW V5.31
* Source: Scarlett 2i4 USB, MICROPHONE, R, volume: no control. Timing signal peak level -25.9 dBFS, measurement signal peak level -14.0 dBFS
* Format: 512k Log Swept Sine, 1 sweep at -18.0 dBFS using an acoustic timing reference
* Dated: Apr 15, 2024 9:08:36 AM
* REW Settings:
*  C-weighting compensation: Off
*  Target level: 75.0 dB
* Note: ; Delay -0.8212 ms (-282 mm, -11.09 in) using estimated IR delay relative to Acoustic reference played from SPEAKER L with no timing offset
* Measurement: empty-p1-c
* Smoothing: 1/48 octave
* Frequency Step: 96 ppo
* Start Frequency: 10.093689 Hz
*
* Freq(Hz) SPL(dB) Phase(degrees)
10.093689 34.106 14.7377
10.166832 34.154 11.7897
10.240505 34.211 8.7368
10.314712 34.270 5.6834
10.389457 34.322 2.7393
10.464743 34.343 -0.0211
10.540575 34.313 -2.7950
10.616956 34.248 -5.5682
10.693891 34.155 -8.2500
10.771383 34.036 -10.7253
10.849437 33.887 -13.0328
10.928057 33.710 -15.2539
11.007246 33.510 -17.3448
11.087009 33.295 -19.2319
11.167350 33.063 -20.8444
11.248273 32.811 -22.2105
11.329783 32.551 -23.3491
11.411883 32.297 -24.2656
11.494578 32.056 -24.9151
11.577873 31.820 -25.1985
11.661771 31.602 -25.1983
11.746277 31.420 -25.0275
11.831395 31.286 -24.7361
11.917130 31.195 -24.1787
12.003487 31.146 -23.4866
12.090469 31.143 -22.8319
12.178081 31.190 -22.2953
12.266329 31.287 -21.7723
12.355216 31.422 -21.3495
12.444747 31.580 -21.1178
12.534926 31.759 -21.0992
12.625760 31.961 -21.2423
12.717251 32.176 -21.5353
12.809406 32.391 -21.9692
12.902228 32.608 -22.5616
12.995723 32.827 -23.2746
13.089895 33.045 -24.0544
13.184750 33.258 -24.8757
13.280292 33.468 -25.7687
13.376526 33.675 -26.6922
13.473458 33.883 -27.6017
13.571093 34.089 -28.5069
13.669434 34.295 -29.4114
13.768489 34.503 -30.2944
13.868261 34.715 -31.1422
13.968756 34.931 -31.9638
14.069979 35.151 -32.7629
14.171936 35.377 -33.5393
14.274632 35.610 -34.2840
14.378072 35.849 -35.0107
14.482261 36.094 -35.7359
14.587206 36.347 -36.4465
14.692910 36.606 -37.1501
14.799381 36.870 -37.8727
14.906624 37.140 -38.6115
15.014643 37.414 -39.3595
15.123446 37.690 -40.1427
15.233036 37.967 -40.9695
15.343421 38.244 -41.8251
15.454606 38.517 -42.7175
15.566596 38.785 -43.6585
15.679398 39.046 -44.6388
15.793018 39.296 -45.6327
15.907460 39.534 -46.6454
16.022732 39.758 -47.6808
16.138840 39.968 -48.6785
16.255788 40.161 -49.6363
16.373585 40.339 -50.5652
16.492234 40.505 -51.3901
16.611744 40.657 -52.1102
16.732119 40.801 -52.7337
16.853367 40.943 -53.2153
16.975494 41.084 -53.5486
17.098505 41.231 -53.7644
17.222408 41.392 -53.8769
17.347209 41.568 -53.8675
17.472914 41.763 -53.8246
17.599530 41.980 -53.7855
17.727063 42.217 -53.7385
17.855521 42.470 -53.7929
17.984909 42.737 -53.9424
18.115235 43.012 -54.1938
18.246506 43.285 -54.5909
18.378727 43.557 -55.1123
18.511907 43.818 -55.7219
18.646052 44.065 -56.4314
18.781169 44.297 -57.1993
18.917265 44.512 -57.9614
19.054347 44.710 -58.7434
19.192423 44.894 -59.4618
19.331499 45.064 -60.1114
19.471583 45.227 -60.6767
19.612682 45.386 -61.1089
19.754804 45.545 -61.4267
19.897956 45.713 -61.6093
20.042144 45.891 -61.6535
20.187378 46.089 -61.5902
20.333664 46.312 -61.4140
20.481010 46.564 -61.1738
20.629424 46.851 -60.9278
20.778913 47.175 -60.6841
20.929486 47.535 -60.5948
21.081150 47.930 -60.6192
21.233912 48.349 -60.9251
21.387782 48.787 -61.4871
21.542767 49.227 -62.3545
21.698874 49.657 -63.5610
21.856113 50.063 -65.0123
22.014492 50.431 -66.7250
22.174018 50.753 -68.5791
22.334700 51.017 -70.4571
22.496546 51.223 -72.3166
22.659566 51.372 -73.8814
22.823766 51.472 -75.1819
22.989157 51.548 -75.8982
23.155745 51.620 -76.0804
23.323542 51.738 -75.6151
23.492554 51.926 -74.5882
23.662790 52.232 -73.3247
23.834261 52.656 -71.9585
24.006973 53.185 -71.0516
24.180938 53.793 -70.5979
24.356163 54.424 -70.9085
24.532658 55.051 -71.7853
24.710431 55.631 -73.2005
24.889493 56.155 -74.9145
25.069853 56.612 -76.7481
25.251519 57.016 -78.5053
25.434502 57.381 -80.0183
25.618811 57.743 -81.2302
25.804456 58.128 -82.0655
25.991445 58.574 -82.7700
26.179790 59.093 -83.3814
26.369500 59.686 -84.3617
26.560584 60.334 -85.7387
26.753053 61.001 -87.8139
26.946917 61.653 -90.4814
27.142185 62.259 -93.7878
27.338869 62.794 -97.4905
27.536977 63.246 -101.5578
27.736522 63.611 -105.6829
27.937512 63.892 -109.7928
28.139959 64.101 -113.6979
28.343872 64.263 -117.2706
28.549264 64.398 -120.4840
28.756143 64.542 -123.3214
28.964522 64.712 -125.9304
29.174411 64.926 -128.4106
29.385821 65.179 -131.0578
29.598763 65.454 -133.9320
29.813248 65.725 -137.2178
30.029287 65.959 -140.8251
30.246891 66.134 -144.7543
30.466073 66.227 -148.7916
30.686842 66.231 -152.7452
30.909212 66.144 -156.4894
31.133193 65.982 -159.6769
31.358797 65.772 -162.2068
31.586035 65.547 -163.8974
31.814921 65.364 -164.7235
32.045465 65.268 -164.8564
32.277680 65.295 -164.4845
32.511577 65.457 -164.0670
32.747169 65.734 -163.9164
32.984469 66.095 -164.2115
33.223488 66.501 -165.0714
33.464239 66.919 -166.4386
33.706735 67.332 -168.2119
33.950987 67.729 -170.2916
34.197010 68.110 -172.5445
34.444816 68.483 -174.8997
34.694417 68.860 -177.3334
34.945827 69.255 -179.8472
35.199059 69.680 177.4380
35.454126 70.135 174.3658
35.711041 70.611 170.8060
35.969818 71.085 166.6201
36.230470 71.525 161.7098
36.493011 71.898 156.1335
36.757455 72.172 149.9915
37.023814 72.323 143.3945
37.292104 72.330 136.5484
37.562338 72.183 129.7701
37.834530 71.882 123.3061
38.108695 71.441 117.4126
38.384846 70.886 112.3836
38.662999 70.267 108.4880
38.943167 69.651 105.7653
39.225365 69.109 103.9909
39.509608 68.679 102.7571
39.795911 68.362 101.5818
40.084289 68.118 100.0987
40.374756 67.889 98.2070
40.667328 67.627 96.0804
40.962020 67.314 94.0141
41.258848 66.958 92.2572
41.557827 66.585 90.9506
41.858972 66.223 90.1038
42.162299 65.893 89.6214
42.467824 65.600 89.3839
42.775564 65.341 89.3385
43.085533 65.113 89.5305
43.397749 64.932 90.0410
43.712227 64.825 90.8667
44.028983 64.822 91.8291
44.348036 64.934 92.5995
44.669400 65.142 92.8299
44.993093 65.403 92.2974
45.319131 65.669 90.9628
45.647532 65.899 88.9402
45.978313 66.066 86.4270
46.311491 66.159 83.6412
46.647083 66.179 80.7780
46.985107 66.139 77.9820
47.325581 66.051 75.3332
47.668521 65.931 72.8492
48.013947 65.787 70.5080
48.361876 65.621 68.2839
48.712326 65.431 66.1829
49.065315 65.216 64.2572
49.420863 64.982 62.5893
49.778987 64.742 61.2495
50.139706 64.517 60.2444
50.503039 64.325 59.4856
50.869005 64.177 58.8032
51.237623 64.066 58.0135
51.608912 63.969 57.0109
51.982891 63.863 55.8250
52.359580 63.732 54.6099
52.739000 63.582 53.5607
53.121168 63.438 52.7838
53.506106 63.328 52.1857
53.893833 63.266 51.4863
54.284370 63.228 50.3786
54.677737 63.162 48.7576
55.073955 63.018 46.8448
55.473043 62.773 45.1216
55.875024 62.456 44.1163
56.279917 62.137 44.1277
56.687745 61.899 45.0039
57.098527 61.791 46.1731
57.512287 61.792 47.0773
57.929045 61.855 47.5468
58.348822 61.943 47.7293
58.771642 62.053 47.8124
59.197525 62.194 47.8212
59.626495 62.364 47.6529
60.058573 62.548 47.2317
60.493782 62.726 46.6118
60.932145 62.885 46.0097
61.373685 63.040 45.7542
61.818424 63.245 46.1924
62.266386 63.591 47.3498
62.717593 64.146 48.6570
63.172071 64.896 49.1750
63.629842 65.748 48.3304
64.090930 66.620 46.2480
64.555359 67.476 43.3262
65.023154 68.322 39.8382
65.494339 69.174 35.9139
65.968938 70.063 31.7403
66.446976 71.054 27.4918
66.928478 72.225 22.7933
67.413469 73.567 16.5342
67.901975 74.940 7.7013
68.394021 76.155 -3.9476
68.889632 77.072 -17.7536
69.388835 77.623 -32.6016
69.891655 77.811 -47.5551
70.398118 77.699 -61.5635
70.908252 77.397 -74.1233
71.422083 77.036 -85.1105
71.939636 76.712 -94.9216
72.460941 76.458 -104.0745
72.986023 76.274 -112.7835
73.514909 76.178 -121.0519
74.047629 76.215 -129.0404
74.584208 76.418 -137.2728
75.124676 76.751 -146.5212
75.669061 77.112 -157.3069
76.217390 77.369 -169.6997
76.769692 77.408 176.7442
77.325997 77.156 162.7147
77.886333 76.592 149.2025
78.450730 75.754 137.0616
79.019216 74.739 127.0211
79.591822 73.690 119.3206
80.168577 72.755 113.6022
80.749512 72.038 109.0563
81.334656 71.562 104.7733
81.924040 71.276 100.2875
82.517696 71.133 95.6377
83.115653 71.138 90.9924
83.717943 71.333 86.2422
84.324598 71.754 80.8658
84.935649 72.381 74.0873
85.551128 73.129 65.2018
86.171066 73.878 53.9925
86.795497 74.539 40.8168
87.424453 75.096 26.2050
88.057967 75.563 10.3675
88.696071 75.918 -6.7816
89.338800 76.086 -25.1471
89.986185 75.985 -44.1005
90.638262 75.595 -62.5381
91.295065 75.024 -79.3070
91.956626 74.517 -94.1508
92.622982 74.297 -108.7518
93.294166 74.278 -125.7510
93.970214 74.077 -146.1389
94.651161 73.296 -168.5951
95.337042 71.669 170.1123
96.027894 69.164 157.0757
96.723752 66.560 167.7917
97.424652 65.699 -174.0996
98.130631 66.267 -177.7394
98.841726 66.629 171.7593
99.557974 66.450 162.4557
100.279412 65.958 156.3677
101.006078 65.420 153.2399
101.738010 65.038 152.0806
102.475245 64.911 151.5403
103.217823 65.025 150.6313
103.965782 65.339 149.1302
104.719161 65.822 146.7456
105.477999 66.407 142.8142
106.242336 66.996 137.3197
107.012212 67.575 131.1423
107.787666 68.228 124.5271
108.568740 69.018 116.7570
109.355474 70.010 107.6848
110.147909 71.293 96.5088
110.946086 72.705 80.3157
111.750047 73.833 57.7427
112.559834 74.380 30.5519
113.375489 74.316 1.6926
114.197055 73.831 -26.3949
115.024574 73.208 -52.5848
115.858089 72.616 -76.9291
116.697645 72.008 -99.4458
117.543284 71.283 -119.0416
118.395051 70.504 -134.2441
119.252990 69.921 -144.6345
120.117147 69.763 -151.9417
120.987565 70.001 -158.4562
121.864291 70.458 -165.0020
122.747370 71.007 -171.5551
123.636848 71.602 -178.1063
124.532771 72.262 175.4443
125.435187 73.070 169.0125
126.344142 74.094 161.6647
127.259684 75.266 151.6746
128.181860 76.341 137.2627
129.110718 76.985 118.2078
130.046308 76.961 96.4520
130.988677 76.235 74.6216
131.937875 74.989 54.5620
132.893951 73.648 36.4854
133.856956 72.951 18.5361
134.826938 73.514 -4.1361
135.803950 74.835 -34.7638
136.788041 76.051 -69.5894
137.779264 76.818 -103.2567
138.777669 77.084 -133.4994
139.783309 76.766 -159.9355
140.796237 75.792 179.2966
141.816504 74.442 167.9857
142.844165 73.448 165.3274
143.879273 73.200 162.9325
144.921881 73.289 157.6194
145.972045 73.339 151.9097
147.029819 73.340 147.3542
148.095257 73.346 143.1235
149.168417 73.297 138.4865
150.249353 73.125 134.3302
151.338121 72.957 132.8234
152.434780 73.177 135.0508
153.539385 74.081 137.8594
154.651995 75.457 136.3612
155.772667 76.826 128.6123
156.901460 77.848 115.9033
158.038432 78.375 99.8336
159.183644 78.284 81.1819
160.337154 77.463 61.6935
161.499023 75.963 43.4312
162.669312 73.998 25.1427
163.848081 71.785 1.7922
165.035392 69.714 -37.4584
166.231306 68.576 -106.8228
167.435887 68.567 -159.0439
168.649196 68.919 174.1460
169.871298 69.190 159.8452
171.102255 69.794 157.6313
172.342133 71.507 166.8713
173.590995 73.792 168.6343
174.848907 75.518 157.0471
176.115934 76.242 141.0923
177.392143 76.109 128.2649
178.677599 75.670 123.0840
179.972371 75.669 124.4668
181.276525 76.337 124.4780
182.590129 77.246 119.7959
183.913252 78.003 111.5503
185.245964 78.413 101.0940
186.588332 78.444 89.9556
187.940428 78.045 77.5774
189.302322 77.021 64.6604
190.674085 75.250 55.3264
192.055788 73.025 59.7456
193.447503 71.749 85.9211
194.849303 72.594 103.7542
196.261262 74.219 103.9744
197.683452 75.449 96.0159
199.115948 76.073 85.9668
200.558824 76.359 77.6182
202.012156 76.589 68.4546
203.476019 76.555 53.4595
204.950490 75.973 43.2163
206.435646 75.590 80.8494
207.931564 76.007 81.9397
209.438322 76.177 60.5212
210.955998 75.223 37.2063
212.484672 72.923 20.3210
214.024424 69.938 32.4478
215.575333 69.247 119.2461
217.137481 71.882 133.9053
218.710948 74.808 127.3828
220.295818 77.007 114.4177
221.892172 78.261 96.9192
223.500094 78.555 79.7114
225.119668 78.495 71.1025
226.750978 78.690 64.0122
228.394109 78.503 47.8318
230.049147 77.285 33.6582
231.716178 75.412 30.1003
233.395289 73.660 30.5779
235.086567 72.465 30.4558
236.790102 72.245 27.6213
238.505980 73.780 17.8660
240.234293 76.654 36.4983
241.975130 79.066 126.0981
243.728581 79.870 88.3010
245.494739 78.842 55.9460
247.273695 76.521 39.7776
249.065542 74.569 45.6875
250.870374 75.688 79.6538
252.688284 78.513 84.4756
254.519367 80.500 61.3647
256.363720 80.952 29.2573
258.221437 79.990 -3.8831
260.092616 78.120 -39.7515
261.977354 76.278 -126.7908
263.875750 76.626 117.0747
265.787903 79.104 97.4067
267.713911 80.964 67.0115
269.653877 80.976 30.0417
271.607900 79.185 2.3174
273.576083 76.802 37.9001
275.558528 75.777 66.1128
277.555338 76.006 53.5740
279.566619 76.520 41.9048
281.592474 77.176 34.2319
283.633009 77.974 24.7717
285.688331 78.536 10.1240
287.758546 78.758 -5.4827
289.843763 78.302 -26.4148
291.944090 76.686 -45.2908
294.059638 74.184 -54.3503
296.190515 71.752 -24.9050
298.336833 70.587 -10.6340
300.498705 70.019 -22.0161
302.676243 69.420 -23.0002
304.869559 69.469 -18.3704
307.078770 69.919 -25.6755
309.303989 70.070 -39.7969
311.545334 70.483 -39.9563
313.802919 71.821 -19.8669
316.076865 73.022 -35.9314
318.367288 73.359 -62.4626
320.674309 72.922 -88.2905
322.998047 72.184 -103.9392
325.338624 72.330 -100.3926
327.696162 73.024 -116.9229
330.070783 73.280 -137.2236
332.462612 73.842 -132.4990
334.871773 74.850 -147.3962
337.298392 75.534 -174.4053
339.742595 75.675 159.8159
342.204510 75.140 144.6130
344.684265 74.389 141.0850
347.181989 73.814 124.3743
349.697813 74.054 128.2693
352.231868 75.359 159.2930
354.784285 76.282 137.2090
357.355198 76.167 109.9236
359.944741 75.439 85.8306
362.553049 74.435 63.9302
365.180258 73.843 102.7534
367.826505 74.577 125.6292
370.491927 75.607 102.9460
373.176665 75.964 77.9258
375.880856 75.188 54.8516
378.604644 73.857 45.0562
381.348169 73.515 32.9072
384.111575 73.882 -3.5657
386.895006 74.044 -101.3359
389.698607 73.802 144.0049
392.522524 72.573 97.7795
395.366904 70.323 71.8472
398.231895 68.324 69.9883
401.117648 68.798 124.1416
404.024312 70.351 119.1282
406.952038 70.971 97.1511
409.900981 71.082 83.6460
412.871292 71.438 69.9949
415.863128 71.801 53.5986
418.876643 72.008 50.6328
421.911996 72.057 45.5212
424.969344 72.228 112.4006
428.048847 72.044 105.1016
431.150666 71.172 108.4604
434.274961 70.718 98.3274
437.421897 71.000 83.3918
440.591636 71.330 69.5178
443.784345 71.889 78.8618
447.000189 73.117 81.7410
450.239337 73.902 91.1846
453.501956 73.741 82.9463
456.788219 73.209 102.7839
460.098294 73.299 139.4919
463.432356 73.841 120.1152
466.790578 73.654 90.4243
470.173135 72.815 85.0530
473.580203 73.142 121.6189
477.011961 74.325 110.9417
480.468586 75.136 93.0046
483.950259 75.782 76.0378
487.457163 75.709 49.8733
490.989478 74.372 24.4500
494.547390 72.519 11.4956
498.131084 72.165 22.4238
501.740748 73.648 137.2456
505.376568 75.673 117.5981
509.038735 77.398 80.4966
512.727439 77.903 38.8433
516.442874 77.066 24.0322
520.185232 75.833 71.7405
523.954708 75.054 46.2012
527.751500 75.212 18.7068
531.575805 76.172 -15.5002
535.427822 76.799 -66.5864
539.307753 76.620 -133.1802
543.215800 75.686 158.1470
547.152165 74.436 111.9668
551.117055 74.422 82.7046
555.110677 75.211 43.5493
559.133237 75.130 -9.4685
563.184947 74.686 -137.1531
567.266018 75.069 124.9768
571.376661 75.620 75.5520
575.517092 75.355 27.6855
579.687526 74.206 4.6426
583.888181 73.008 -6.4512
588.119275 72.303 -37.6509
592.381030 71.829 -69.7354
596.673667 71.785 -93.7896
600.997410 72.640 -106.5400
605.352485 74.044 -122.4600
609.739119 74.793 -151.7446
614.157540 74.564 -176.4692
618.607979 74.093 -178.5425
623.090667 74.168 -179.7534
627.605839 74.625 165.4053
632.153730 74.939 146.3882
636.734576 75.139 145.1304
641.348617 76.181 169.7183
645.996094 78.001 159.2168
650.677248 79.548 137.0742
655.392323 80.335 111.9116
660.141566 80.129 85.3936
664.925224 78.976 68.6958
669.743546 77.964 62.9546
674.596784 78.059 52.7275
679.485191 78.427 28.7837
684.409020 77.894 -0.8628
689.368530 76.295 -26.7109
694.363979 74.090 -50.5547
699.395626 71.705 -73.9106
704.463736 69.911 -77.2451
709.568570 69.678 -47.7085
714.710396 70.366 -69.3340
719.889483 71.775 5.1787
725.106099 74.320 0.2310
730.360516 76.532 -34.8452
735.653010 77.063 -78.4297
740.983855 76.024 -112.9492
746.353329 74.992 -127.3394
751.761713 75.341 -134.1484
757.209288 75.980 -154.3232
762.696339 76.122 -176.4980
768.223151 76.389 164.9751
773.790013 77.169 142.4492
779.397214 77.636 113.5635
785.045047 77.203 84.8994
790.733808 76.720 92.8057
796.463791 76.302 85.2334
802.235296 74.996 51.0503
808.048623 73.934 20.4180
813.904077 73.797 -3.7334
819.801961 73.555 -20.7261
825.742584 73.544 -39.8896
831.726255 74.476 -43.9312
837.753287 76.035 -65.8911
843.823992 77.251 -95.3662
849.938689 77.972 -130.6909
856.097695 78.265 -162.5005
862.301332 77.850 -68.3223
868.549922 77.212 -104.5005
874.843793 76.512 -140.2939
881.183272 75.832 -160.9233
887.568689 76.130 -141.9849
894.000378 77.111 -141.2876
900.478673 77.711 -175.4761
907.003913 77.741 147.0801
913.576437 77.169 118.4624
920.196588 76.503 103.2002
926.864712 75.816 67.6460
933.581156 74.425 24.4849
940.346270 73.279 8.2764
947.160407 74.159 34.6943
954.023921 75.771 -1.0522
960.937172 76.214 -49.4106
967.900519 75.058 -83.0610
974.914325 73.606 -80.9819
981.978956 73.445 -88.0063
989.094780 73.762 -96.3887
996.262169 73.392 -118.2988
1003.481495 72.895 -35.4517
1010.753136 72.934 -36.7329
1018.077470 73.425 -60.8423
1025.454879 73.829 -89.1973
1032.885748 73.959 -113.8574
1040.370463 74.164 -127.8003
1047.909417 74.655 -123.0195
1055.503000 75.053 -144.1035
1063.151610 74.330 -169.3086
1070.855645 72.717 -144.7505
1078.615506 70.670 -105.9331
1086.431599 69.918 -19.4033
1094.304330 71.604 -29.9736
1102.234110 73.510 -57.0801
1110.221353 74.199 -85.8164
1118.266475 73.941 -106.9937
1126.369895 73.627 -124.2568
1134.532035 73.491 -144.7715
1142.753322 73.677 -169.8501
1151.034184 73.707 152.8027
1159.375052 73.122 121.8091
1167.776361 72.884 104.9854
1176.238550 73.839 65.6978
1184.762060 74.835 25.8447
1193.347334 75.431 -6.5952
1201.994821 75.871 -35.2368
1210.704971 76.060 -64.7173
1219.478238 75.316 -96.0737
1228.315080 73.328 -112.5308
1237.215957 71.296 -111.6797
1246.181334 70.810 -71.5679
1255.211678 70.894 -77.0459
1264.307459 70.181 -93.6299
1273.469152 69.385 -67.0527
1282.697235 69.170 -60.6021
1291.992188 69.707 -66.4932
1301.354495 69.954 -84.3989
1310.784647 69.818 -100.6514
1320.283132 70.215 -143.6895
1329.850448 70.959 95.3354
1339.487093 71.369 28.2031
1349.193569 71.287 -4.2476
1358.970381 71.394 -23.5532
1368.818041 71.674 -43.3174
1378.737061 72.160 -62.9595
1388.727958 72.761 -90.9458
1398.791253 72.298 -137.4814
1408.927471 70.445 102.1113
1419.137140 69.047 37.4077
1429.420793 69.088 12.1108
1439.778965 69.719 -8.1694
1450.212197 70.300 -21.1514
1460.721033 70.342 -27.3242
1471.306019 70.223 -31.4712
1481.967709 70.102 -40.6675
1492.706658 70.430 -34.1528
1503.523426 70.996 7.6475
1514.418576 71.435 4.7461
1525.392678 71.918 -1.9248
1536.446302 72.547 42.8867
1547.580025 73.266 30.5156
1558.794428 74.027 3.7632
1570.090095 73.918 -30.1616
1581.467615 73.096 -61.7739
1592.927581 72.726 -98.4023
1604.470591 72.650 176.7129
1616.097246 72.735 111.3872
1627.808153 73.539 82.7642
1639.603922 74.487 73.8730
1651.485168 74.894 56.9092
1663.452510 75.020 38.3882
1675.506573 74.894 25.8916
1687.647984 74.789 42.2930
1699.877377 75.049 36.5640
1712.195390 75.663 25.3423
1724.602663 76.174 7.0063
1737.099845 76.253 10.1274
1749.687587 76.653 13.1538
1762.366544 76.847 33.4019
1775.137379 76.718 29.1846
1788.000756 75.951 88.9956
1800.957346 74.687 85.7695
1814.007826 74.121 87.1821
1827.152874 75.353 86.3291
1840.393177 76.921 70.5923
1853.729425 77.386 47.3677
1867.162312 76.876 27.3584
1880.692540 76.060 38.0850
1894.320813 76.348 106.3213
1908.047843 77.405 89.1831
1921.874344 78.006 68.2393
1935.801038 77.797 51.9766
1949.828650 77.393 34.3301
1963.957912 77.378 28.4385
1978.189561 77.523 36.3032
1992.524338 77.342 20.7861
2006.962991 76.800 2.0796
2021.506272 76.533 118.0771
2036.154940 76.988 114.4126
2050.909758 77.662 92.7812
2065.771495 77.714 66.2529
2080.740927 77.625 53.9380
2095.818833 77.772 38.0996
2111.006001 77.531 43.3374
2126.303220 77.532 105.8955
2141.711290 77.906 89.6538
2157.231013 77.670 65.1108
2172.863198 77.809 47.6943
2188.608660 78.621 25.6138
2204.468221 78.294 -7.2593
2220.442706 76.557 -39.3662
2236.532950 74.752 -121.9199
2252.739789 74.969 -153.0532
2269.064070 76.590 -175.3237
2285.506644 77.375 150.6069
2302.068367 77.194 125.3149
2318.750104 76.693 103.5098
2335.552723 76.124 83.6270
2352.477101 76.001 65.1128
2369.524119 76.624 49.5259
2386.694668 77.296 5.4883
2403.989641 77.231 -62.9390
2421.409941 76.924 -129.0273
2438.956476 76.973 -169.3765
2456.630160 77.430 152.7676
2474.431915 76.935 102.6611
2492.362668 75.264 -56.3716
2510.423356 74.138 -105.0312
2528.614918 74.529 -131.8286
2546.938304 75.363 -154.4712
2565.394469 75.556 171.2871
2583.984375 75.254 121.5503
2602.708991 75.221 38.7266
2621.569293 75.555 -34.1274
2640.566265 76.242 -71.3950
2659.700897 77.418 -71.3887
2678.974186 78.294 -85.2944
2698.387137 77.858 -119.6416
2717.940763 76.192 -150.7998
2737.636082 74.485 -125.3105
2757.474121 73.728 -72.9146
2777.455915 73.728 -84.2363
2797.582506 74.746 -82.4067
2817.854942 76.071 -94.1274
2838.274281 76.386 -109.6377
2858.841586 76.164 -14.1821
2879.557931 76.369 -23.3496
2900.424394 76.797 -21.6694
2921.442065 77.097 -29.0190
2942.612039 77.159 -46.3618
2963.935418 76.743 -67.0806
2985.413316 75.964 -82.9082
3007.046852 75.967 -4.8545
3028.837153 76.830 -11.8770
3050.785356 77.010 -33.4785
3072.892604 76.067 -48.0234
3095.160050 75.232 -48.7979
3117.588856 75.669 -22.5898
3140.180190 76.320 -13.1099
3162.935230 76.379 -2.8774
3185.855163 75.946 -0.5732
3208.941182 75.383 -10.8760
3232.194493 74.898 -22.3926
3255.616307 74.875 -3.0381
3279.207844 75.141 30.4736
3302.970336 75.353 29.6851
3326.905021 75.430 20.6514
3351.013146 75.242 13.8564
3375.295969 74.907 9.6919
3399.754755 74.625 30.4971
3424.390779 75.035 39.3569
3449.205326 75.403 29.7490
3474.199690 75.224 23.8223
3499.375173 74.542 28.8052
3524.733088 74.405 74.2505
3550.274757 75.199 76.0200
3576.001511 75.710 61.9922
3601.914692 75.599 47.5098
3628.015651 75.297 41.8442
3654.305748 75.145 114.3501
3680.786354 75.564 115.6392
3707.458849 75.996 90.7349
3734.324624 75.875 72.2920
3761.385080 75.789 147.6250
3788.641627 76.240 135.6187
3816.095686 76.186 109.2344
3843.748688 75.303 89.6162
3871.602076 74.387 83.7998
3899.657300 74.376 97.1040
3927.915825 75.214 138.8623
3956.379122 76.011 161.5835
3985.048676 76.208 132.8735
4013.925981 75.572 130.8711
4043.012544 74.482 173.0693
4072.309879 73.876 163.6001
4101.819515 73.893 138.2861
4131.542990 74.073 -94.9233
4161.481854 74.340 -131.4692
4191.637667 74.496 -175.6772
4222.012001 74.023 85.3560
4252.606441 73.473 16.0542
4283.422580 73.835 9.9531
4314.462026 74.564 5.7397
4345.726396 74.368 -14.0063
4377.217321 73.586 -21.3901
4408.936442 73.400 -17.6650
4440.885413 73.638 -13.3242
4473.065899 73.585 12.9058
4505.479579 73.754 26.7617
4538.128141 74.428 32.3574
4571.013288 74.798 28.7256
4604.136735 74.505 23.4399
4637.500207 73.922 30.6035
4671.105446 73.502 55.8877
4704.954201 73.668 61.3081
4739.048239 74.163 60.4209
4773.389336 74.497 53.4995
4807.979283 74.224 47.4458
4842.819883 73.812 66.6143
4877.912952 73.704 87.4521
4913.260320 73.793 94.8281
4948.863830 74.274 103.3286
4984.725337 74.846 99.7998
5020.846712 74.805 91.5732
5057.229836 74.664 106.0820
5093.876609 74.797 138.1104
5130.788938 74.842 143.7822
5167.968750 75.286 144.7827
5205.417982 75.629 147.9429
5243.138586 75.275 147.2598
5281.132530 74.781 139.1631
5319.401793 74.458 172.0474
5357.948371 74.188 -156.7617
5396.774274 73.768 -171.8765
5435.881525 73.084 -177.0420
5475.272163 72.452 -163.4712
5514.948243 72.033 -154.4282
5554.911831 71.802 -139.7427
5595.165012 72.589 -113.0820
5635.709884 74.073 -128.5674
5676.548561 74.595 -162.7651
5717.683172 73.795 -31.3452
5759.115861 72.640 -30.5830
5800.848789 71.842 -10.7422
5842.884130 71.646 -0.1465
5885.224077 72.058 0.1113
5927.870837 73.209 43.0718
5970.826633 74.154 87.4194
6014.093704 73.895 75.0278
6057.674306 73.487 99.2568
6101.570711 73.505 94.4805
6145.785208 73.337 90.4849
6190.320101 73.218 117.8770
6235.177712 73.213 126.9980
6280.360380 73.056 124.6733
6325.870460 72.421 131.3623
6371.710325 71.843 144.2798
6417.882365 72.097 170.5469
6464.388986 73.028 -179.2412
6511.232613 73.557 178.0405
6558.415689 73.545 -167.0337
6605.940673 73.547 -146.9678
6653.810042 73.584 -142.8237
6702.026292 73.725 -140.3037
6750.591937 73.825 -139.4224
6799.509509 74.035 -127.4868
6848.781558 74.202 -102.4360
6898.410653 73.838 -96.8462
6948.399380 73.077 -98.2075
6998.750346 72.469 -90.3989
7049.466176 72.452 -69.9873
7100.549514 72.576 -51.9233
7152.003023 72.373 -53.3608
7203.829385 71.386 -53.3818
7256.031302 70.365 -14.3325
7308.611496 70.569 19.7773
7361.572708 71.380 24.9648
7414.917698 71.916 49.7998
7468.649249 72.071 103.8301
7522.770160 71.694 110.2739
7577.283253 71.093 128.7578
7632.191371 70.735 175.6934
7687.497376 70.890 -176.3872
7743.204151 70.841 179.9023
7799.314600 70.531 -164.7798
7855.831649 70.725 -137.1528
7912.758244 71.294 -123.0684
7970.097352 71.836 -113.0693
8027.851962 72.464 -95.6631
8086.025087 73.165 -84.3037
8144.619758 73.651 -77.1992
8203.639030 73.410 -72.0405
8263.085980 72.459 -57.6553
8322.963708 71.629 -42.9878
8383.275334 71.295 -28.9043
8444.024002 71.388 -14.7822
8505.212881 71.373 -3.5967
8566.845160 70.954 7.5073
8628.924051 70.613 28.1113
8691.452792 70.763 48.9297
8754.434642 70.904 63.6582
8817.872884 70.722 73.9609
8881.770826 70.399 93.3535
8946.131799 70.022 112.6465
9010.959157 69.066 135.0728
9076.256282 68.118 -177.0615
9142.026576 67.877 -155.0942
9208.273470 68.028 -124.4712
9275.000415 68.132 -92.5156
9342.210891 68.358 -67.1577
9409.908403 69.372 -35.4014
9478.096478 70.839 -18.2930
9546.778672 71.760 -12.8467
9615.958566 72.119 0.7393
9685.639765 72.335 15.7808
9755.825904 72.366 26.8457
9826.520640 72.162 43.2534
9897.727659 71.925 57.4321
9969.450674 71.665 69.4697
10041.693423 71.685 89.7720
10114.459673 72.189 110.1372
10187.753217 72.553 122.1851
10261.577877 72.475 136.8716
10335.937500 72.286 150.8223
10410.835964 71.770 162.2891
10486.277173 70.924 178.6445
10562.265060 69.920 -157.3740
10638.803587 69.129 -138.5054
10715.896743 68.605 -114.3403
10793.548548 68.321 -75.8340
10871.763050 68.148 -0.9575
10950.544327 68.350 39.2432
11029.896485 68.945 51.2695
11109.823662 69.818 74.2305
11190.330024 70.576 97.6299
11271.419768 70.721 110.6226
11353.097122 70.690 128.0381
11435.366344 70.927 145.0820
11518.231722 71.091 162.3569
11601.697577 71.567 -172.7017
11685.768261 72.163 -159.0806
11770.448155 72.285 -145.5112
11855.741674 72.056 -128.8052
11941.653265 71.158 -114.6880
12028.187408 69.924 -88.5298
12115.348612 68.976 -66.1431
12203.141422 68.235 -37.8530
12291.570415 67.778 -3.4902
12380.640201 67.500 35.7549
12470.355424 67.432 77.3750
12560.720760 67.375 108.5151
12651.740920 67.610 148.6133
12743.420650 68.336 172.4487
12835.764729 69.209 -165.5981
12928.777972 69.738 -144.4399
13022.465227 70.202 -119.6016
13116.831378 70.753 -100.2056
13211.881345 70.809 -84.4966
13307.620084 70.406 -63.4585
13404.052584 69.922 -40.8081
13501.183875 69.408 -16.4702
13599.019019 68.869 5.1699
13697.563116 68.268 33.3472
13796.821305 67.797 64.3643
13896.798760 67.045 90.8965
13997.500692 66.214 116.7026
14098.932352 65.403 150.7158
14201.099028 64.703 -163.3428
14304.006046 64.428 -122.7695
14407.658770 64.919 -82.7515
14512.062604 65.811 -46.2920
14617.222992 66.678 -20.6221
14723.145416 67.363 4.3032
14829.835397 67.933 29.2554
14937.298497 68.237 51.4312
15045.540320 68.055 70.3086
15154.566507 67.237 91.8794
15264.382743 66.178 118.5835
15374.994752 65.084 145.2305
15486.408302 63.812 174.8218
15598.629201 62.465 -146.7827
15711.663298 61.647 -103.3647
15825.516487 61.651 -60.7578
15940.194703 62.245 -19.8506
16055.703925 62.889 14.2603
16172.050174 63.341 43.9302
16289.239516 63.565 72.8374
16407.278061 63.594 102.0825
16526.171961 63.513 131.8872
16645.927415 63.323 161.6860
16766.550667 63.053 -167.0498
16888.048005 62.694 -136.6953
17010.425762 61.999 -106.4370
17133.690320 61.061 -71.4834
17257.848103 60.323 -33.8325
17382.905584 59.943 9.3701
17508.869284 59.946 53.9624
17635.745768 60.242 90.6987
17763.541652 60.389 123.6350
17892.263597 60.186 156.4822
18021.918315 59.706 -168.9861
18152.512564 59.074 -131.1118
18284.053153 58.707 -90.5771
18416.546939 58.680 -52.3301
18550.000830 58.676 -15.3538
18684.421783 58.686 19.4329
18819.816805 58.574 50.4360
18956.192956 58.003 80.3237
19093.557344 56.939 110.0798
19231.917131 55.439 138.7307
19371.279531 53.545 174.9712
19511.651807 51.425 -116.4355
19653.041280 50.086 -42.2556
19795.455318 49.517 3.9995
19938.901348 49.349 37.3022
