* Measurement data measured by REW V5.31
* Source: Scarlett 2i4 USB, MICROPHONE, R, volume: no control. Timing signal peak level -24.8 dBFS, measurement signal peak level -15.5 dBFS
* Format: 512k Log Swept Sine, 1 sweep at -18.0 dBFS using an acoustic timing reference
* Dated: Apr 15, 2024 9:30:53 AM
* REW Settings:
*  C-weighting compensation: Off
*  Target level: 75.0 dB
* Note: ; Delay -4.3643 ms (-1.497 m, -(4 ft 10.9 in)) using estimated IR delay relative to Acoustic reference played from SPEAKER L with no timing offset
* Measurement: empty-p2-rl
* Smoothing: 1/48 octave
* Frequency Step: 96 ppo
* Start Frequency: 10.093689 Hz
*
* Freq(Hz) SPL(dB) Phase(degrees)
10.093689 21.630 77.5970
10.166832 21.743 74.8993
10.240505 21.879 71.9079
10.314712 22.017 68.8326
10.389457 22.139 65.8473
10.464743 22.184 63.0096
10.540575 22.111 59.8508
10.616956 21.942 56.4666
10.693891 21.660 53.1041
10.771383 21.247 50.0493
10.849437 20.745 46.9731
10.928057 20.133 43.5658
11.007246 19.297 40.0822
11.087009 18.079 36.9853
11.167350 16.198 34.5470
11.248273 13.590 32.2376
11.329783 10.841 30.7438
11.411883 8.959 33.4698
11.494578 9.012 74.4830
11.577873 10.806 166.9113
11.661771 13.306 175.5435
11.746277 15.702 175.3403
11.831395 17.673 172.6941
11.917130 19.481 169.2888
12.003487 21.139 165.7128
12.090469 22.582 162.0504
12.178081 23.760 158.0812
12.266329 24.699 153.7522
12.355216 25.467 149.4273
12.444747 26.130 145.2510
12.534926 26.702 140.8839
12.625760 27.161 136.1995
12.717251 27.523 131.5500
12.809406 27.803 127.1231
12.902228 27.997 122.3921
12.995723 28.104 117.4166
13.089895 28.125 112.5438
13.184750 28.064 107.8322
13.280292 27.917 102.7109
13.376526 27.680 97.4241
13.473458 27.347 92.3560
13.571093 26.919 87.1233
13.669434 26.389 81.4763
13.768489 25.737 75.7308
13.868261 24.956 70.0854
13.968756 24.045 63.8690
14.069979 22.967 57.0549
14.171936 21.664 49.9682
14.274632 20.089 41.9543
14.378072 18.366 31.9634
14.482261 16.668 19.2136
14.587206 14.945 1.6222
14.692910 13.401 -26.5184
14.799381 12.621 -62.5456
14.906624 13.071 -91.8425
15.014643 14.331 -112.4134
15.123446 15.623 -125.6664
15.233036 16.581 -134.9091
15.343421 17.352 -142.9887
15.454606 17.932 -149.5646
15.566596 18.287 -154.7902
15.679398 18.434 -159.7602
15.793018 18.424 -164.0999
15.907460 18.281 -167.5605
16.022732 18.002 -170.6520
16.138840 17.620 -173.2984
16.255788 17.151 -175.2647
16.373585 16.597 -176.6825
16.492234 15.985 -177.8356
16.611744 15.331 -178.6026
16.732119 14.619 -178.9979
16.853367 13.835 -179.5117
16.975494 12.990 179.7982
17.098505 12.001 178.9765
17.222408 10.756 177.7931
17.347209 9.243 175.8066
17.472914 7.351 173.4308
17.599530 4.739 170.7198
17.727063 1.804 165.4438
17.855521 0.696 26.3835
17.984909 2.718 -16.2690
18.115235 5.710 -21.1471
18.246506 8.042 -25.9023
18.378727 9.858 -31.0089
18.511907 11.228 -35.5220
18.646052 12.131 -40.4615
18.781169 12.625 -45.4618
18.917265 12.788 -49.6771
19.054347 12.608 -54.2558
19.192423 12.035 -57.7711
19.331499 11.020 -60.0820
19.471583 9.629 -60.6260
19.612682 7.855 -55.8541
19.754804 6.019 -40.2651
19.897956 5.710 -10.1237
20.042144 7.407 17.4724
20.187378 9.637 29.4300
20.333664 11.630 32.6556
20.481010 13.373 32.7939
20.629424 14.680 31.7691
20.778913 15.619 30.0072
20.929486 16.328 29.0487
21.081150 16.846 28.4997
21.233912 17.315 29.0839
21.387782 17.799 30.9402
21.542767 18.412 33.3286
21.698874 19.234 36.1757
21.856113 20.218 38.3746
22.014492 21.320 39.3185
22.174018 22.464 39.1476
22.334700 23.545 37.4684
22.496546 24.536 34.9343
22.659566 25.387 31.5962
22.823766 26.091 27.7561
22.989157 26.637 23.8839
23.155745 27.025 19.8918
23.323542 27.266 16.5088
23.492554 27.373 13.5175
23.662790 27.386 11.6530
23.834261 27.344 10.7772
24.006973 27.339 11.2084
24.180938 27.421 12.7703
24.356163 27.674 14.8854
24.532658 28.085 17.2090
24.710431 28.613 18.8555
24.889493 29.186 19.9264
25.069853 29.710 20.1915
25.251519 30.146 20.2843
25.434502 30.457 20.4022
25.618811 30.689 21.3804
25.804456 30.887 23.5210
25.991445 31.221 27.1556
26.179790 31.785 32.0112
26.369500 32.683 36.7003
26.560584 33.852 40.3254
26.753053 35.149 41.7701
26.946917 36.448 41.2501
27.142185 37.639 38.9474
27.338869 38.669 35.4650
27.536977 39.514 31.0739
27.736522 40.168 26.3416
27.937512 40.637 21.4978
28.139959 40.935 16.8430
28.343872 41.093 12.8016
28.549264 41.146 9.4326
28.756143 41.163 7.1084
28.964522 41.210 5.6190
29.174411 41.353 4.9457
29.385821 41.630 4.3274
29.598763 42.029 3.4977
29.813248 42.496 1.8313
30.029287 42.955 -0.6558
30.246891 43.351 -3.9506
30.466073 43.628 -7.7496
30.686842 43.767 -11.6592
30.909212 43.763 -15.4856
31.133193 43.633 -18.6208
31.358797 43.420 -20.9005
31.586035 43.178 -22.0224
31.814921 42.994 -21.9844
32.045465 42.930 -21.1290
32.277680 43.015 -19.8169
32.511577 43.229 -18.7084
32.747169 43.515 -17.9656
32.984469 43.824 -17.5933
33.223488 44.124 -17.3962
33.464239 44.423 -17.0629
33.706735 44.749 -16.5220
33.950987 45.138 -15.7588
34.197010 45.619 -15.0555
34.444816 46.179 -14.7576
34.694417 46.794 -15.0649
34.945827 47.421 -16.1139
35.199059 48.021 -17.8826
35.454126 48.577 -20.2421
35.711041 49.077 -23.1023
35.969818 49.521 -26.3995
36.230470 49.905 -30.1305
36.493011 50.223 -34.3279
36.757455 50.458 -39.0137
37.023814 50.587 -44.2108
37.292104 50.582 -49.8894
37.562338 50.410 -55.8651
37.834530 50.040 -61.9268
38.108695 49.444 -67.8071
38.384846 48.598 -73.0936
38.662999 47.489 -77.1012
38.943167 46.136 -78.8518
39.225365 44.646 -77.1943
39.509608 43.273 -71.1587
39.795911 42.350 -61.4604
40.084289 42.064 -51.4177
40.374756 42.229 -43.8874
40.667328 42.495 -38.5922
40.962020 42.725 -33.5427
41.258848 43.042 -27.0289
41.557827 43.687 -18.8099
41.858972 44.783 -10.6996
42.162299 46.213 -4.9997
42.467824 47.731 -2.4275
42.775564 49.159 -2.2877
43.085533 50.445 -3.5538
43.397749 51.620 -5.4689
43.712227 52.742 -7.7515
44.028983 53.850 -10.5740
44.348036 54.938 -14.3259
44.669400 55.956 -19.3169
44.993093 56.836 -25.6072
45.319131 57.515 -33.0132
45.647532 57.944 -41.1903
45.978313 58.091 -49.7017
46.311491 57.944 -58.0487
46.647083 57.508 -65.6735
46.985107 56.819 -71.9736
47.325581 55.954 -76.3925
47.668521 55.034 -78.6642
48.013947 54.198 -79.1535
48.361876 53.519 -78.8594
48.712326 52.952 -78.7371
49.065315 52.382 -78.9637
49.420863 51.722 -78.9081
49.778987 50.983 -77.6611
50.139706 50.269 -74.7667
50.503039 49.691 -70.7457
50.869005 49.251 -66.6172
51.237623 48.846 -62.5573
51.608912 48.422 -57.3668
51.982891 48.125 -49.5295
52.359580 48.228 -39.3837
52.739000 48.827 -29.4756
53.121168 49.802 -20.9517
53.506106 51.149 -12.5140
53.893833 53.007 -4.1150
54.284370 55.289 1.0345
54.677737 57.620 0.2927
55.073955 59.663 -5.8138
55.473043 61.250 -15.4801
55.875024 62.324 -27.0630
56.279917 62.883 -39.3757
56.687745 62.951 -51.3713
57.098527 62.582 -62.0236
57.512287 61.878 -70.3903
57.929045 61.007 -75.9017
58.348822 60.163 -78.7889
58.771642 59.475 -80.2901
59.197525 58.913 -81.6268
59.626495 58.374 -82.9355
60.058573 57.819 -83.6041
60.493782 57.310 -83.2640
60.932145 56.919 -82.4641
61.373685 56.627 -82.0879
61.818424 56.337 -82.3976
62.266386 55.977 -82.8266
62.717593 55.566 -82.7535
63.172071 55.176 -82.2563
63.629842 54.825 -82.2811
64.090930 54.410 -83.7681
64.555359 53.737 -86.8508
65.023154 52.591 -90.6244
65.494339 50.809 -93.1874
65.968938 48.474 -89.3492
66.446976 46.911 -54.5386
66.928478 48.491 12.6743
67.413469 51.760 27.9692
67.901975 54.834 28.8693
68.394021 57.340 24.5716
68.889632 59.262 17.4999
69.388835 60.634 9.1423
69.891655 61.520 0.6335
70.398118 62.014 -7.0885
70.908252 62.207 -13.6875
71.422083 62.160 -19.0736
71.939636 61.895 -23.1346
72.460941 61.437 -25.1745
72.986023 60.907 -24.1578
73.514909 60.557 -19.5392
74.047629 60.669 -12.1431
74.584208 61.409 -3.7734
75.124676 62.720 3.0857
75.669061 64.316 5.9835
76.217390 65.833 4.2628
76.769692 67.039 -0.5965
77.325997 67.874 -6.7350
77.886333 68.398 -12.6885
78.450730 68.704 -17.8984
79.019216 68.859 -22.3229
79.591822 68.897 -25.8133
80.168577 68.891 -27.8689
80.749512 68.979 -28.3482
81.334656 69.264 -28.3237
81.924040 69.689 -29.3072
82.517696 70.104 -31.6466
83.115653 70.412 -34.6542
83.717943 70.615 -37.5543
84.324598 70.755 -40.0806
84.935649 70.867 -42.3371
85.551128 70.957 -44.4628
86.171066 71.021 -46.5269
86.795497 71.046 -48.5354
87.424453 71.017 -50.3546
88.057967 70.937 -51.6896
88.696071 70.842 -52.2442
89.338800 70.792 -51.8446
89.986185 70.869 -50.4779
90.638262 71.162 -48.5237
91.295065 71.709 -46.9208
91.956626 72.463 -46.6251
92.622982 73.337 -48.1234
93.294166 74.238 -51.8136
93.970214 75.034 -58.2075
94.651161 75.556 -67.4097
95.337042 75.636 -78.7849
96.027894 75.147 -91.1218
96.723752 74.001 -102.7612
97.424652 72.161 -111.2892
98.130631 69.715 -112.5276
98.841726 67.154 -99.7382
99.557974 65.712 -74.6006
100.279412 66.105 -56.0927
101.006078 67.416 -47.4705
101.738010 68.850 -44.1393
102.475245 70.188 -43.8284
103.217823 71.406 -45.6750
103.965782 72.466 -50.0530
104.719161 73.209 -57.7726
105.477999 73.397 -68.3467
106.242336 72.841 -79.4888
107.012212 71.502 -87.6071
107.787666 69.580 -88.1572
108.568740 67.707 -77.0536
109.355474 66.956 -57.3743
110.147909 67.705 -41.6868
110.946086 69.069 -35.5515
111.750047 70.279 -35.5935
112.559834 71.128 -37.8522
113.375489 71.687 -39.9395
114.197055 72.117 -41.0471
115.024574 72.545 -41.6166
115.858089 73.006 -42.5083
116.697645 73.451 -44.4273
117.543284 73.753 -48.0620
118.395051 73.718 -53.2026
119.252990 73.221 -57.4650
120.117147 72.435 -56.7269
120.987565 71.973 -48.3568
121.864291 72.458 -37.0894
122.747370 73.748 -30.2358
123.636848 75.274 -29.3531
124.532771 76.620 -33.6417
125.435187 77.511 -42.1585
126.344142 77.750 -53.0641
127.259684 77.248 -63.4719
128.181860 76.105 -69.4844
129.110718 74.798 -66.5293
130.046308 74.276 -54.6162
130.988677 74.932 -45.7900
131.937875 75.876 -47.5090
132.893951 76.262 -55.1900
133.856956 75.891 -62.2400
134.826938 75.028 -64.1748
135.803950 74.133 -60.6596
136.788041 73.566 -54.4686
137.779264 73.462 -47.3450
138.777669 73.843 -39.6506
139.783309 74.555 -34.6194
140.796237 75.256 -33.4944
141.816504 75.921 -31.4624
142.844165 76.887 -26.7625
143.879273 78.166 -24.8252
144.921881 79.447 -27.1775
145.972045 80.596 -31.5946
147.029819 81.535 -38.3431
148.095257 82.087 -47.7001
149.168417 82.148 -57.6489
150.249353 81.782 -66.1561
151.338121 81.141 -72.2911
152.434780 80.402 -76.0270
153.539385 79.669 -78.9405
154.651995 78.841 -82.3942
155.772667 77.771 -84.3583
156.901460 76.682 -79.3373
158.038432 76.333 -66.8979
159.183644 76.990 -58.7843
160.337154 77.977 -58.7491
161.499023 78.741 -63.5908
162.669312 79.148 -70.1381
163.848081 79.326 -76.5833
165.035392 79.404 -84.1956
166.231306 79.250 -95.6675
167.435887 78.530 -111.4308
168.649196 76.962 -129.4803
169.871298 74.571 -149.0358
171.102255 72.282 178.2886
172.342133 72.470 97.8188
173.590995 74.653 50.8084
174.848907 76.446 24.1815
176.115934 77.327 5.1466
177.392143 77.703 -5.7132
178.677599 78.158 -9.5818
179.972371 78.984 -11.0568
181.276525 79.931 -15.7797
182.590129 80.595 -23.8602
183.913252 80.859 -32.1838
185.245964 80.809 -39.3632
186.588332 80.525 -45.5604
187.940428 80.124 -49.2101
189.302322 79.950 -48.7775
190.674085 80.146 -50.1987
192.055788 80.251 -57.1914
193.447503 79.933 -64.6977
194.849303 79.377 -69.1499
196.261262 78.800 -73.8683
197.683452 78.028 -80.8126
199.115948 76.875 -86.5673
200.558824 75.474 -88.2764
202.012156 74.198 -86.6271
203.476019 73.273 -87.5665
204.950490 72.478 -92.6570
206.435646 71.888 -88.4938
207.931564 72.081 -86.5386
209.438322 72.607 -110.9473
210.955998 73.045 -154.6794
212.484672 73.605 151.4500
214.024424 74.647 110.5400
215.575333 75.881 82.7605
217.137481 76.997 64.1549
218.710948 78.263 52.8138
220.295818 79.618 40.6478
221.892172 80.766 26.2090
223.500094 81.436 7.8794
225.119668 81.393 -12.8060
226.750978 80.903 -34.3253
228.394109 80.047 -64.5608
230.049147 78.548 -110.6296
231.716178 76.788 174.9640
233.395289 76.074 121.3527
235.086567 77.200 100.8895
236.790102 79.161 88.9899
238.505980 80.845 74.7614
240.234293 81.922 59.8237
241.975130 82.419 45.3231
243.728581 82.242 31.1311
245.494739 81.540 21.6956
247.273695 80.622 14.0282
249.065542 79.475 6.9722
250.870374 78.417 10.3862
252.688284 78.549 30.5802
254.519367 79.450 30.1780
256.363720 79.587 16.3163
258.221437 78.778 8.2191
260.092616 77.659 4.4686
261.977354 76.290 -0.5616
263.875750 74.821 16.3942
265.787903 74.160 34.0817
267.713911 74.062 33.3636
269.653877 74.377 41.9263
271.607900 75.727 65.1329
273.576083 77.478 65.6903
275.558528 78.638 55.1471
277.555338 78.980 43.2985
279.566619 78.554 33.8271
281.592474 77.837 32.5886
283.633009 77.641 36.6365
285.688331 78.020 36.3617
287.758546 78.047 24.7539
289.843763 77.253 15.3359
291.944090 76.149 19.4091
294.059638 75.258 21.1906
296.190515 74.509 31.8737
298.336833 74.269 37.3138
300.498705 75.205 40.6493
302.676243 76.775 34.6897
304.869559 77.261 11.2249
307.078770 75.976 3.0421
309.303989 73.774 27.4491
311.545334 72.118 10.4159
313.802919 71.549 -17.2566
316.076865 72.415 -69.5806
318.367288 74.046 -133.9490
320.674309 75.218 -178.1836
322.998047 75.401 149.6401
325.338624 74.880 141.5513
327.696162 75.219 162.6914
330.070783 76.852 162.7573
332.462612 78.217 147.8523
334.871773 78.562 131.1879
337.298392 78.390 122.8448
339.742595 78.186 114.1552
342.204510 77.921 105.0518
344.684265 78.004 100.2596
347.181989 78.585 91.6267
349.697813 78.862 73.6097
352.231868 78.473 54.1719
354.784285 77.545 27.8623
357.355198 76.222 0.6539
359.944741 75.850 -12.5259
362.553049 76.869 -37.8398
365.180258 78.049 -68.3416
367.826505 78.889 -93.8701
370.491927 79.171 -120.9404
373.176665 79.104 -145.2661
375.880856 78.451 -168.0283
378.604644 77.100 177.7727
381.348169 75.509 167.8433
384.111575 74.332 164.9976
386.895006 74.460 -176.4395
389.698607 75.106 -154.9651
392.522524 74.751 -169.6116
395.366904 73.412 -160.9426
398.231895 72.182 -149.6230
401.117648 72.155 -133.7302
404.024312 73.930 -106.6860
406.952038 75.841 -111.8267
409.900981 76.474 -130.6255
412.871292 75.930 -141.4995
415.863128 75.294 -142.7368
418.876643 75.014 -147.1719
421.911996 74.620 -151.3459
424.969344 74.314 -145.5537
428.048847 74.442 -146.3989
431.150666 74.458 -155.1570
434.274961 73.829 -164.7788
437.421897 72.929 -161.7715
440.591636 72.837 -156.8906
443.784345 73.480 -164.0522
447.000189 73.776 176.3516
450.239337 73.052 154.5774
453.501956 72.167 145.5613
456.788219 72.087 114.9180
460.098294 71.762 50.1389
463.432356 70.514 -16.0942
466.790578 68.441 -55.3799
470.173135 66.663 -56.9250
473.580203 66.952 -50.8545
477.011961 68.025 -69.2612
480.468586 68.196 -96.2747
483.950259 67.358 -127.0386
487.457163 65.758 -165.0378
490.989478 64.043 139.0264
494.547390 63.142 -97.9565
498.131084 63.298 131.2896
501.740748 64.154 80.9812
505.376568 65.223 44.1042
509.038735 65.834 6.2788
512.727439 66.137 -16.0525
516.442874 66.151 100.5173
520.185232 65.326 74.4739
523.954708 64.139 64.7485
527.751500 63.223 57.1763
531.575805 63.002 67.3462
535.427822 63.652 70.5620
539.307753 63.924 54.4756
543.215800 64.249 47.2646
547.152165 66.388 157.2649
551.117055 68.897 162.0720
555.110677 69.991 136.1711
559.133237 69.619 119.5603
563.184947 68.664 116.8171
567.266018 67.728 122.2661
571.376661 68.093 144.8313
575.517092 69.356 137.9241
579.687526 69.846 115.3936
583.888181 69.244 95.5286
588.119275 68.344 153.6177
592.381030 67.736 169.1968
596.673667 67.192 157.2058
600.997410 67.510 162.2085
605.352485 68.983 169.3665
609.739119 70.271 166.2942
614.157540 71.162 -168.2957
618.607979 71.422 176.9597
623.090667 70.367 149.8372
627.605839 68.609 136.2844
632.153730 67.909 -167.2573
636.734576 68.356 -135.2805
641.348617 68.854 -125.6509
645.996094 69.081 -134.5789
650.677248 69.052 -157.4365
655.392323 69.005 161.0483
660.141566 69.167 66.8821
664.925224 69.575 -7.7839
669.743546 70.157 -42.3616
674.596784 71.032 -61.4548
679.485191 72.337 -68.1423
684.409020 73.247 -82.2256
689.368530 72.872 -110.1648
694.363979 71.126 -131.1248
699.395626 68.742 -126.2097
704.463736 67.549 -53.8650
709.568570 68.746 -54.1294
714.710396 71.076 23.2197
719.889483 72.827 -5.3401
725.106099 73.448 -36.6265
730.360516 73.250 -54.6709
735.653010 72.106 -98.5681
740.983855 70.538 141.7671
746.353329 70.156 77.9424
751.761713 70.858 46.0090
757.209288 71.443 17.9382
762.696339 71.519 -15.4580
768.223151 71.445 -60.7349
773.790013 71.290 93.8049
779.397214 70.316 54.9165
785.045047 68.802 28.7495
790.733808 68.235 1.4958
796.463791 68.984 -53.2373
802.235296 70.096 -138.3364
808.048623 71.017 173.0454
813.904077 71.714 153.7551
819.801961 71.967 133.6262
825.742584 71.950 130.7451
831.726255 72.643 133.8064
837.753287 73.447 117.0864
843.823992 73.322 96.0337
849.938689 72.748 79.3809
856.097695 72.184 62.7969
862.301332 71.653 39.4497
868.549922 71.144 7.9524
874.843793 70.351 8.6062
881.183272 69.555 94.8638
887.568689 69.556 63.4441
894.000378 69.564 32.8196
900.478673 68.967 11.5439
907.003913 68.143 -5.4451
913.576437 67.007 -19.3281
920.196588 66.700 -14.5642
926.864712 67.838 0.6711
933.581156 68.832 -1.0286
940.346270 69.300 -12.6982
947.160407 70.090 -34.1243
954.023921 71.362 -69.6604
960.937172 72.084 -139.8137
967.900519 71.972 106.4944
974.914325 71.709 46.3513
981.978956 71.299 2.9241
989.094780 70.367 -30.4146
996.262169 69.396 -51.6133
1003.481495 68.876 -70.3064
1010.753136 68.953 -87.4668
1018.077470 69.849 -100.4038
1025.454879 70.879 -117.4502
1032.885748 71.354 -138.7151
1040.370463 71.009 -162.9556
1047.909417 69.843 -169.2451
1055.503000 68.920 -152.2559
1063.151610 69.147 -81.5962
1070.855645 70.140 -84.2654
1078.615506 70.970 -103.4604
1086.431599 71.222 -113.8826
1094.304330 71.040 -103.1641
1102.234110 70.762 -74.1096
1110.221353 70.594 -86.6274
1118.266475 70.116 -108.0122
1126.369895 69.226 -133.9517
1134.532035 68.292 -164.2268
1142.753322 67.622 36.3701
1151.034184 67.117 8.2500
1159.375052 67.532 3.8540
1167.776361 68.240 -17.4927
1176.238550 68.260 5.4585
1184.762060 68.099 98.2048
1193.347334 68.048 85.4507
1201.994821 68.034 67.8818
1210.704971 67.429 53.4966
1219.478238 66.561 52.5620
1228.315080 66.896 113.9592
1237.215957 67.832 121.2722
1246.181334 67.973 106.4055
1255.211678 67.151 115.8245
1264.307459 65.856 124.8474
1273.469152 64.684 132.7029
1282.697235 64.783 146.8035
1291.992188 65.862 154.6895
1301.354495 66.394 149.0156
1310.784647 65.978 135.2825
1320.283132 65.770 120.2561
1329.850448 66.318 76.8669
1339.487093 67.392 -1.4521
1349.193569 68.100 -27.2559
1358.970381 68.083 -26.1050
1368.818041 68.199 -12.0967
1378.737061 69.146 -9.8687
1388.727958 69.767 -41.5898
1398.791253 69.800 -92.5957
1408.927471 69.783 166.7144
1419.137140 69.471 115.9307
1429.420793 69.370 100.7734
1439.778965 69.418 96.2456
1450.212197 69.164 110.9224
1460.721033 68.663 124.6265
1471.306019 68.251 118.5303
1481.967709 68.523 -178.9189
1492.706658 69.145 -179.7036
1503.523426 69.735 159.8311
1514.418576 70.178 137.0234
1525.392678 70.154 147.6509
1536.446302 69.688 -129.9287
1547.580025 69.182 -47.9590
1558.794428 68.748 -56.5400
1570.090095 68.460 -62.1289
1581.467615 68.771 -28.4121
1592.927581 68.913 -29.8501
1604.470591 68.480 -25.2783
1616.097246 68.494 -3.2095
1627.808153 68.644 18.8491
1639.603922 68.585 55.9910
1651.485168 68.397 53.3640
1663.452510 67.723 58.0542
1675.506573 66.641 97.4553
1687.647984 65.855 137.3474
1699.877377 66.466 161.9895
1712.195390 68.250 -179.9307
1724.602663 70.255 -167.1201
1737.099845 71.286 -171.4849
1749.687587 70.907 -173.4504
1762.366544 69.972 -154.1206
1775.137379 69.594 -130.9197
1788.000756 69.544 -113.8735
1800.957346 68.858 -92.7312
1814.007826 67.737 -72.4910
1827.152874 67.317 -54.0400
1840.393177 67.769 -36.2256
1853.729425 68.173 -12.5095
1867.162312 68.493 18.0972
1880.692540 68.942 36.6416
1894.320813 69.479 63.9690
1908.047843 70.332 91.4690
1921.874344 70.837 94.6858
1935.801038 70.416 109.6489
1949.828650 70.049 143.0493
1963.957912 69.992 153.4653
1978.189561 69.417 159.4736
1992.524338 68.599 -164.2432
2006.962991 68.454 -131.5969
2021.506272 68.600 -114.2483
2036.154940 68.516 -94.0552
2050.909758 68.383 -63.1589
2065.771495 68.593 -43.3367
2080.740927 69.002 -30.5383
2095.818833 69.624 -11.9121
2111.006001 70.536 20.0559
2126.303220 70.704 38.6643
2141.711290 70.102 59.8210
2157.231013 69.619 80.8574
2172.863198 69.471 107.3782
2188.608660 69.720 134.5391
2204.468221 69.964 150.8726
2220.442706 70.135 168.4231
2236.532950 70.289 -168.5833
2252.739789 70.195 -152.4502
2269.064070 69.571 -128.1667
2285.506644 69.054 -92.8850
2302.068367 69.234 -63.0740
2318.750104 69.466 -42.6897
2335.552723 69.491 -18.2505
2352.477101 69.615 9.2673
2369.524119 69.898 30.7441
2386.694668 69.803 45.7561
2403.989641 68.934 64.8291
2421.409941 68.142 98.9597
2438.956476 68.151 133.8862
2456.630160 68.589 159.6343
2474.431915 69.323 -169.3589
2492.362668 69.987 -140.5820
2510.423356 70.092 -115.2063
2528.614918 70.329 -86.5964
2546.938304 70.416 -66.4001
2565.394469 70.050 -42.0317
2583.984375 69.549 -17.2446
2602.708991 69.153 10.0098
2621.569293 69.141 39.7900
2640.566265 69.134 60.9697
2659.700897 68.711 85.8884
2678.974186 68.688 129.5251
2698.387137 68.911 159.3586
2717.940763 68.936 -174.7021
2737.636082 69.121 -150.0210
2757.474121 69.479 -122.9485
2777.455915 70.041 -98.1526
2797.582506 69.935 -84.8025
2817.854942 68.892 -56.8872
2838.274281 68.023 6.5149
2858.841586 68.487 48.8110
2879.557931 69.236 71.1919
2900.424394 70.050 96.3984
2921.442065 70.707 114.6123
2942.612039 70.403 125.4106
2963.935418 69.539 137.8901
2985.413316 68.855 152.6250
3007.046852 69.254 -148.9131
3028.837153 69.753 -32.8077
3050.785356 69.515 -11.1659
3072.892604 69.115 18.0745
3095.160050 69.008 37.1318
3117.588856 69.782 41.4215
3140.180190 70.403 37.2299
3162.935230 69.876 43.1287
3185.855163 69.176 -66.4127
3208.941182 69.061 -87.3428
3232.194493 69.019 -77.9673
3255.616307 68.928 -66.6705
3279.207844 69.244 -50.0649
3302.970336 69.116 -27.9229
3326.905021 68.456 -69.1169
3351.013146 68.043 -109.9453
3375.295969 68.371 -109.0601
3399.754755 69.232 -104.5986
3424.390779 70.144 -100.6074
3449.205326 70.827 -96.5645
3474.199690 70.635 -110.9390
3499.375173 69.542 130.8770
3524.733088 68.992 118.7432
3550.274757 69.617 131.9070
3576.001511 70.204 149.5503
3601.914692 70.044 169.1104
3628.015651 69.577 -151.4517
3654.305748 69.386 -89.2607
3680.786354 69.827 -51.5164
3707.458849 70.350 -27.4025
3734.324624 70.227 7.2767
3761.385080 69.556 46.4047
3788.641627 69.297 104.2140
3816.095686 69.090 151.3241
3843.748688 68.458 -177.6600
3871.602076 68.204 -119.0944
3899.657300 69.065 -65.5507
3927.915825 70.413 -26.4170
3956.379122 71.550 10.4347
3985.048676 71.822 37.5819
4013.925981 71.099 75.4392
4043.012544 70.148 126.5074
4072.309879 69.454 173.3864
4101.819515 69.407 -144.9355
4131.542990 69.573 -107.6853
4161.481854 69.466 -59.1948
4191.637667 69.302 4.5372
4222.012001 69.632 48.1434
4252.606441 70.024 83.7532
4283.422580 69.663 120.5723
4314.462026 69.059 176.4109
4345.726396 69.027 -127.0337
4377.217321 69.656 -73.4280
4408.936442 70.316 -34.7592
4440.885413 70.334 5.8874
4473.065899 69.979 78.0993
4505.479579 70.194 137.8027
4538.128141 70.770 -178.7505
4571.013288 70.795 -147.6426
4604.136735 70.206 -92.2465
4637.500207 70.151 -7.4456
4671.105446 70.599 30.6227
4704.954201 70.529 67.1899
4739.048239 70.325 128.3276
4773.389336 71.078 -166.8554
4807.979283 71.638 -132.8589
4842.819883 71.084 -99.7038
4877.912952 70.643 -27.7314
4913.260320 71.635 41.9431
4948.863830 72.723 75.4445
4984.725337 72.626 104.6489
5020.846712 71.519 159.9091
5057.229836 70.923 -113.8557
5093.876609 70.746 -73.0261
5130.788938 70.075 -29.6331
5167.968750 69.536 41.5298
5205.417982 69.815 101.6565
5243.138586 69.905 141.4545
5281.132530 69.542 -155.5796
5319.401793 69.933 -75.0332
5357.948371 70.808 -26.5927
5396.774274 70.896 14.3971
5435.881525 70.599 99.3359
5475.272163 70.751 169.6477
5514.948243 70.953 -156.6785
5554.911831 71.013 -116.0383
5595.165012 71.228 -3.6185
5635.709884 71.274 47.0918
5676.548561 70.649 76.9878
5717.683172 69.728 127.4476
5759.115861 69.467 -109.6416
5800.848789 69.721 -61.8485
5842.884130 69.446 -1.1963
5885.224077 68.910 84.2908
5927.870837 68.771 131.2776
5970.826633 68.938 -151.6494
6014.093704 69.591 -51.8425
6057.674306 69.950 -12.0969
6101.570711 69.937 50.1487
6145.785208 70.459 154.8628
6190.320101 71.120 -160.2424
6235.177712 71.003 -117.8398
6280.360380 70.554 -15.6682
6325.870460 70.136 48.6047
6371.710325 69.576 107.0693
6417.882365 69.418 -161.1528
6464.388986 69.521 -100.4016
6511.232613 69.400 -40.9788
6558.415689 69.535 54.0750
6605.940673 69.878 107.7283
6653.810042 69.601 145.2922
6702.026292 68.765 -51.3770
6750.591937 68.252 -1.5552
6799.509509 68.010 51.6094
6848.781558 67.915 -164.1226
6898.410653 67.850 -97.0015
6948.399380 68.007 -6.9238
6998.750346 68.410 71.7466
7049.466176 68.330 135.2200
7100.549514 68.013 -143.2080
7152.003023 68.141 -64.3765
7203.829385 68.369 10.8235
7256.031302 68.571 92.3286
7308.611496 68.680 165.7573
7361.572708 68.650 -117.0056
7414.917698 68.782 -33.3994
7468.649249 68.890 45.6084
7522.770160 69.097 129.5220
7577.283253 69.281 -151.1470
7632.191371 69.133 -68.7622
7687.497376 68.976 17.3604
7743.204151 68.727 96.2759
7799.314600 68.289 -177.8135
7855.831649 67.944 -94.6616
7912.758244 67.546 -8.8828
7970.097352 67.269 82.6719
8027.851962 67.093 167.5693
8086.025087 66.602 -109.4648
8144.619758 66.197 -18.3584
8203.639030 66.157 72.1240
8263.085980 66.010 165.7056
8322.963708 65.833 -100.6045
8383.275334 65.886 -14.1860
8444.024002 66.033 74.8491
8505.212881 65.941 -165.2588
8566.845160 65.682 -58.9087
8628.924051 65.539 32.0654
8691.452792 65.401 126.4790
8754.434642 65.246 -138.4482
8817.872884 65.102 -44.7476
8881.770826 65.226 62.4673
8946.131799 65.167 158.6489
9010.959157 64.703 -89.9609
9076.256282 64.497 33.9771
9142.026576 64.532 140.4004
9208.273470 64.541 -117.8267
9275.000415 64.637 -14.5913
9342.210891 64.544 83.7251
9409.908403 64.447 -171.1172
9478.096478 64.696 -63.8320
9546.778672 64.857 50.7319
9615.958566 64.950 160.4673
9685.639765 64.821 -98.2700
9755.825904 64.795 9.6924
9826.520640 65.073 117.4360
9897.727659 65.305 -137.8159
9969.450674 65.472 -28.0454
10041.693423 65.651 83.0894
10114.459673 65.415 -165.3955
10187.753217 65.180 -51.0205
10261.577877 65.299 59.7451
10335.937500 65.382 169.5635
10410.835964 65.046 -77.0576
10486.277173 64.659 34.1035
10562.265060 64.487 150.7168
10638.803587 64.477 -88.7373
10715.896743 64.184 39.1240
10793.548548 63.980 166.2588
10871.763050 64.290 -68.2422
10950.544327 64.550 58.3145
11029.896485 64.345 -173.2617
11109.823662 63.982 -48.1953
11190.330024 63.750 71.8662
11271.419768 63.580 -163.4199
11353.097122 63.294 -35.9961
11435.366344 63.010 94.0957
11518.231722 62.966 -138.8213
11601.697577 62.921 -16.5186
11685.768261 62.421 112.1455
11770.448155 61.847 -122.6377
11855.741674 61.437 0.3486
11941.653265 61.286 149.5020
12028.187408 61.369 -48.8203
12115.348612 61.256 103.3711
12203.141422 60.862 -123.1836
12291.570415 60.890 13.5977
12380.640201 61.186 153.9746
12470.355424 61.232 -70.8301
12560.720760 61.023 65.0400
12651.740920 60.965 -153.4268
12743.420650 61.084 -13.5078
12835.764729 60.947 126.5254
12928.777972 60.297 -89.8438
13022.465227 59.759 55.8018
13116.831378 59.434 -154.0352
13211.881345 59.167 -1.9697
13307.620084 58.696 148.2178
13404.052584 58.045 -58.1426
13501.183875 57.707 94.3545
13599.019019 57.740 -116.2920
13697.563116 57.916 36.5430
13796.821305 58.122 -173.4766
13896.798760 57.979 -27.5977
13997.500692 57.412 120.3184
14098.932352 56.650 -85.4668
14201.099028 56.069 83.3535
14304.006046 55.803 -73.6406
14407.658770 55.993 102.3916
14512.062604 56.192 -94.9863
14617.222992 56.483 72.6924
14723.145416 57.142 -119.1826
14829.835397 57.599 45.8828
14937.298497 57.787 -153.2832
15045.540320 57.787 5.4014
15154.566507 57.502 166.9844
15264.382743 57.128 -25.6982
15374.994752 56.694 145.8594
15486.408302 56.105 -40.4307
15598.629201 55.634 135.3594
15711.663298 55.355 -50.4551
15825.516487 54.916 124.0547
15940.194703 54.266 -55.5762
16055.703925 53.473 123.4805
16172.050174 52.742 -57.0674
16289.239516 52.434 133.7705
16407.278061 52.804 -33.2617
16526.171961 53.683 153.0293
16645.927415 54.327 -25.0020
16766.550667 54.357 166.7432
16888.048005 54.124 5.0488
17010.425762 54.059 -165.0244
17133.690320 53.890 21.4365
17257.848103 53.753 -150.2510
17382.905584 53.854 37.7598
17508.869284 53.848 -137.0732
17635.745768 53.212 49.7783
17763.541652 51.998 -117.5186
17892.263597 50.820 79.4590
18021.918315 49.762 -76.9961
18152.512564 48.681 131.8320
18284.053153 47.793 -16.3916
18416.546939 47.041 -159.7393
18550.000830 46.245 50.4268
18684.421783 45.483 -99.2734
18819.816805 44.939 128.6816
18956.192956 44.652 6.6641
19093.557344 44.494 -134.4756
19231.917131 44.470 75.1045
19371.279531 44.551 -77.0820
19511.651807 44.519 129.5898
19653.041280 43.984 -23.5049
19795.455318 42.951 -174.4990
19938.901348 41.951 35.9912
