* Measurement data measured by REW V5.31
* Source: Scarlett 2i4 USB, MICROPHONE, R, volume: no control. Timing signal peak level -30.0 dBFS, measurement signal peak level -22.3 dBFS
* Format: 512k Log Swept Sine, 1 sweep at -18.0 dBFS using an acoustic timing reference
* Dated: Apr 16, 2024 9:40:37 AM
* REW Settings:
*  C-weighting compensation: Off
*  Target level: 75.0 dB
* Note: ; Delay -4.2461 ms (-1.456 m, -(4 ft 9.3 in)) using IR start time relative to Acoustic reference played from SPEAKER L with no timing offset
* Measurement: pillows-and-throws-p1-rr
* Smoothing: 1/48 octave
* Frequency Step: 96 ppo
* Start Frequency: 10.093689 Hz
*
* Freq(Hz) SPL(dB) Phase(degrees)
10.093689 17.559 -76.9557
10.166832 17.067 -79.1481
10.240505 16.459 -81.4810
10.314712 15.824 -83.9098
10.389457 15.151 -86.3643
10.464743 14.303 -88.7850
10.540575 13.147 -91.4422
10.616956 11.791 -94.3836
10.693891 10.327 -97.5479
10.771383 8.795 -100.7601
10.849437 6.992 -104.4876
10.928057 4.974 -110.5799
11.007246 3.275 -137.2536
11.087009 2.730 84.1234
11.167350 4.026 72.3534
11.248273 6.707 66.9047
11.329783 9.737 62.6867
11.411883 12.341 58.7257
11.494578 14.174 54.6281
11.577873 15.527 50.4418
11.661771 16.599 46.3162
11.746277 17.531 42.2308
11.831395 18.390 37.9978
11.917130 19.123 33.4571
12.003487 19.740 28.8517
12.090469 20.274 24.2980
12.178081 20.740 19.6184
12.266329 21.123 14.5458
12.355216 21.430 9.3612
12.444747 21.673 4.2607
12.534926 21.853 -1.0500
12.625760 21.967 -6.7989
12.717251 22.020 -12.6656
12.809406 22.017 -18.4174
12.902228 21.954 -24.6006
12.995723 21.834 -31.2219
13.089895 21.661 -37.9193
13.184750 21.438 -44.6053
13.280292 21.161 -51.9484
13.376526 20.837 -59.6969
13.473458 20.474 -67.3831
13.571093 20.070 -75.4840
13.669434 19.626 -84.2833
13.768489 19.156 -93.2933
13.868261 18.665 -102.2440
13.968756 18.151 -111.9535
14.069979 17.616 -122.0779
14.171936 17.064 -131.8699
14.274632 16.501 -142.0514
14.378072 15.907 -152.6909
14.482261 15.263 -162.9113
14.587206 14.575 -172.9691
14.692910 13.815 176.4897
14.799381 12.919 166.1597
14.906624 11.866 156.3211
15.014643 10.642 145.6516
15.123446 9.155 134.2603
15.233036 7.184 122.5070
15.343421 4.862 106.6094
15.454606 3.094 79.7552
15.566596 2.849 29.9142
15.679398 3.880 -25.4749
15.793018 5.380 -50.0873
15.907460 6.978 -64.1297
16.022732 8.662 -75.5455
16.138840 10.085 -84.0723
16.255788 11.057 -91.4471
16.373585 11.679 -98.7850
16.492234 12.022 -104.7197
16.611744 12.106 -110.0714
16.732119 11.901 -115.2117
16.853367 11.352 -118.6250
16.975494 10.395 -120.6772
17.098505 9.228 -120.5240
17.222408 8.077 -114.9299
17.347209 6.992 -99.7319
17.472914 6.821 -74.1724
17.599530 8.351 -52.0766
17.727063 10.862 -40.2961
17.855521 13.222 -36.5298
17.984909 15.192 -36.5406
18.115235 16.899 -38.2571
18.246506 18.326 -41.1077
18.378727 19.491 -44.6869
18.511907 20.460 -48.4147
18.646052 21.261 -52.4438
18.781169 21.903 -56.5894
18.917265 22.414 -60.5533
19.054347 22.795 -64.6535
19.192423 23.062 -68.5252
19.331499 23.222 -72.2871
19.471583 23.280 -75.9470
19.612682 23.243 -79.3083
19.754804 23.111 -82.5709
19.897956 22.885 -85.5496
20.042144 22.565 -88.3369
20.187378 22.137 -90.8464
20.333664 21.595 -93.0308
20.481010 20.919 -94.8217
20.629424 20.079 -95.9281
20.778913 19.063 -96.1584
20.929486 17.836 -94.7249
21.081150 16.409 -90.6233
21.233912 15.121 -82.2765
21.387782 14.164 -67.6245
21.542767 13.984 -49.4354
21.698874 14.902 -33.9263
21.856113 16.305 -24.4772
22.014492 17.652 -20.3179
22.174018 18.862 -19.0743
22.334700 19.765 -19.5751
22.496546 20.386 -21.0596
22.659566 20.745 -22.5057
22.823766 20.862 -23.9546
22.989157 20.784 -24.2946
23.155745 20.561 -23.6044
23.323542 20.320 -21.1656
23.492554 20.140 -16.9963
23.662790 20.195 -11.8743
23.834261 20.485 -6.3077
24.006973 20.949 -1.8255
24.180938 21.499 1.6655
24.356163 21.970 4.2361
24.532658 22.346 6.5372
24.710431 22.615 9.7490
24.889493 22.916 14.2623
25.069853 23.447 20.9168
25.251519 24.349 28.1082
25.434502 25.712 34.6274
25.618811 27.308 38.0734
25.804456 28.980 38.8389
25.991445 30.537 36.8240
26.179790 31.912 33.0675
26.369500 33.061 27.9820
26.560584 33.976 22.1347
26.753053 34.656 15.8558
26.946917 35.103 9.6611
27.142185 35.321 3.5983
27.338869 35.329 -1.4789
27.536977 35.152 -5.5734
27.736522 34.872 -7.6592
27.937512 34.622 -7.7220
28.139959 34.589 -5.3257
28.343872 34.940 -2.0213
28.549264 35.709 1.1490
28.756143 36.728 2.1057
28.964522 37.833 0.9606
29.174411 38.863 -2.2668
29.385821 39.739 -6.8433
29.598763 40.430 -12.3658
29.813248 40.927 -18.3707
30.029287 41.238 -24.3651
30.246891 41.375 -30.2902
30.466073 41.363 -35.5969
30.686842 41.234 -40.2102
30.909212 41.024 -43.9157
31.133193 40.791 -46.5622
31.358797 40.587 -48.2744
31.586035 40.459 -49.1208
31.814921 40.438 -49.5557
32.045465 40.519 -49.8741
32.277680 40.687 -50.3340
32.511577 40.902 -51.1562
32.747169 41.134 -52.3318
32.984469 41.357 -53.8317
33.223488 41.550 -55.5814
33.464239 41.699 -57.4341
33.706735 41.798 -59.2645
33.950987 41.844 -60.9323
34.197010 41.850 -62.2100
34.444816 41.845 -62.9758
34.694417 41.866 -63.1991
34.945827 41.958 -62.9507
35.199059 42.152 -62.6304
35.454126 42.439 -62.6757
35.711041 42.781 -63.3988
35.969818 43.115 -65.0046
36.230470 43.371 -67.4169
36.493011 43.504 -70.3068
36.757455 43.487 -73.3284
37.023814 43.320 -76.0882
37.292104 43.029 -78.1030
37.562338 42.677 -79.0446
37.834530 42.348 -78.9058
38.108695 42.115 -77.9814
38.384846 42.015 -76.8775
38.662999 42.021 -76.2998
38.943167 42.046 -76.6122
39.225365 42.004 -77.6714
39.509608 41.835 -79.0814
39.795911 41.516 -80.3271
40.084289 41.064 -80.8464
40.374756 40.530 -80.1447
40.667328 39.999 -78.0083
40.962020 39.556 -74.6302
41.258848 39.245 -70.3989
41.557827 39.074 -65.5574
41.858972 39.062 -60.0071
42.162299 39.279 -53.5329
42.467824 39.833 -46.4361
42.775564 40.775 -39.9490
43.085533 42.012 -35.5900
43.397749 43.351 -34.0787
43.712227 44.624 -35.1736
44.028983 45.735 -38.1819
44.348036 46.646 -42.3908
44.669400 47.353 -47.2178
44.993093 47.873 -52.2285
45.319131 48.231 -57.1218
45.647532 48.456 -61.7091
45.978313 48.575 -65.8914
46.311491 48.608 -69.6271
46.647083 48.573 -72.8983
46.985107 48.484 -75.6906
47.325581 48.359 -77.9993
47.668521 48.213 -79.8599
48.013947 48.062 -81.3754
48.361876 47.908 -82.7020
48.712326 47.738 -83.9811
49.065315 47.528 -85.2542
49.420863 47.253 -86.4163
49.778987 46.899 -87.2363
50.139706 46.473 -87.4344
50.503039 46.001 -86.7878
50.869005 45.518 -85.2161
51.237623 45.051 -82.7806
51.608912 44.613 -79.5200
51.982891 44.214 -75.1796
52.359580 43.927 -69.0663
52.739000 43.945 -60.4696
53.121168 44.522 -50.0752
53.506106 45.711 -40.8627
53.893833 47.254 -35.6522
54.284370 48.817 -34.8718
54.677737 50.183 -37.4633
55.073955 51.256 -42.1507
55.473043 52.016 -47.8644
55.875024 52.481 -53.7669
56.279917 52.695 -59.2450
56.687745 52.724 -63.8473
57.098527 52.644 -67.3681
57.512287 52.530 -69.9058
57.929045 52.427 -71.7845
58.348822 52.348 -73.3640
58.771642 52.282 -74.9047
59.197525 52.208 -76.5275
59.626495 52.107 -78.2966
60.058573 51.953 -80.2725
60.493782 51.711 -82.4573
60.932145 51.336 -84.6708
61.373685 50.791 -86.4962
61.818424 50.070 -87.2214
62.266386 49.222 -85.9416
62.717593 48.381 -81.8766
63.172071 47.748 -75.0206
63.629842 47.498 -66.7101
64.090930 47.644 -58.7911
64.555359 48.062 -52.2629
65.023154 48.620 -47.0421
65.494339 49.251 -42.7291
65.968938 49.933 -39.0864
66.446976 50.655 -36.1205
66.928478 51.396 -33.9001
67.413469 52.131 -32.3999
67.901975 52.842 -31.5088
68.394021 53.520 -31.1532
68.889632 54.152 -31.3468
69.388835 54.712 -32.1152
69.891655 55.167 -33.3453
70.398118 55.494 -34.7334
70.908252 55.689 -35.9036
71.422083 55.767 -36.4457
71.939636 55.766 -35.9802
72.460941 55.751 -34.0819
72.986023 55.827 -30.4774
73.514909 56.122 -25.3580
74.047629 56.728 -19.4431
74.584208 57.682 -13.5059
75.124676 58.980 -8.2191
75.669061 60.557 -4.5650
76.217390 62.263 -3.6589
76.769692 63.922 -5.8198
77.325997 65.406 -10.4944
77.886333 66.660 -16.8032
78.450730 67.684 -24.0046
79.019216 68.498 -31.6834
79.591822 69.116 -39.6429
80.168577 69.540 -47.7088
80.749512 69.777 -55.5776
81.334656 69.861 -62.8563
81.924040 69.855 -69.3936
82.517696 69.807 -75.4747
83.115653 69.713 -81.5735
83.717943 69.522 -87.8339
84.324598 69.194 -93.8525
84.935649 68.743 -99.1201
85.551128 68.218 -103.5180
86.171066 67.644 -107.3432
86.795497 67.004 -110.7693
87.424453 66.268 -113.5015
88.057967 65.440 -115.1587
88.696071 64.533 -115.5643
89.338800 63.566 -114.1691
89.986185 62.663 -109.4274
90.638262 62.191 -100.0319
91.295065 62.565 -88.4450
91.956626 63.706 -80.3909
92.622982 65.101 -78.5828
93.294166 66.315 -81.8669
93.970214 67.160 -87.8351
94.651161 67.652 -94.2718
95.337042 67.928 -99.9534
96.027894 68.125 -105.0424
96.723752 68.286 -110.4039
97.424652 68.370 -116.4462
98.130631 68.336 -123.0100
98.841726 68.172 -129.9237
99.557974 67.866 -137.1477
100.279412 67.406 -144.5608
101.006078 66.795 -151.9391
101.738010 66.059 -159.2062
102.475245 65.225 -166.6118
103.217823 64.300 -174.5221
103.965782 63.277 176.8765
104.719161 62.190 167.4023
105.477999 61.127 156.4846
106.242336 60.240 143.1737
107.012212 59.726 126.5974
107.787666 59.722 106.8417
108.568740 60.180 85.7981
109.355474 60.925 66.2627
110.147909 61.812 49.9457
110.946086 62.764 36.9747
111.750047 63.727 26.5165
112.559834 64.638 17.4585
113.375489 65.415 9.0726
114.197055 66.006 1.4460
115.024574 66.440 -4.8824
115.858089 66.801 -9.6703
116.697645 67.165 -13.3599
117.543284 67.545 -16.7748
118.395051 67.883 -20.4495
119.252990 68.111 -24.3092
120.117147 68.195 -27.7783
120.987565 68.160 -30.1493
121.864291 68.077 -31.0797
122.747370 68.035 -30.5267
123.636848 68.150 -28.3151
124.532771 68.582 -24.5475
125.435187 69.394 -21.0334
126.344142 70.387 -20.7751
127.259684 71.242 -24.1261
128.181860 71.800 -28.9130
129.110718 72.099 -33.1750
130.046308 72.274 -35.9680
130.988677 72.489 -37.2812
131.937875 72.825 -38.4287
132.893951 73.204 -40.8611
133.856956 73.475 -44.6492
134.826938 73.536 -48.9044
135.803950 73.371 -52.4509
136.788041 73.076 -53.8687
137.779264 72.875 -52.2958
138.777669 72.995 -49.1013
139.783309 73.460 -46.7616
140.796237 74.100 -46.6346
141.816504 74.709 -48.8962
142.844165 75.152 -52.5609
143.879273 75.425 -56.2047
144.921881 75.618 -59.1694
145.972045 75.823 -61.6974
147.029819 76.082 -64.4805
148.095257 76.346 -68.4332
149.168417 76.491 -74.0681
150.249353 76.389 -80.8015
151.338121 75.983 -87.4124
152.434780 75.284 -93.0674
153.539385 74.326 -97.1003
154.651995 73.197 -98.1610
155.772667 72.106 -95.5690
156.901460 71.218 -92.1913
158.038432 70.416 -90.1400
159.183644 69.588 -85.8639
160.337154 69.098 -74.7446
161.499023 69.520 -60.2040
162.669312 70.743 -50.9634
163.848081 72.167 -48.6833
165.035392 73.357 -51.6104
166.231306 74.078 -58.0054
167.435887 74.259 -64.9316
168.649196 74.049 -69.2549
169.871298 73.740 -70.2782
171.102255 73.578 -69.3959
172.342133 73.676 -68.0914
173.590995 73.948 -68.7076
174.848907 74.113 -72.7699
176.115934 73.866 -79.0905
177.392143 73.070 -84.0886
178.677599 71.977 -81.4952
179.972371 71.367 -68.8440
181.276525 71.726 -58.3990
182.590129 72.570 -55.0312
183.913252 73.415 -55.0887
185.245964 74.115 -56.8192
186.588332 74.676 -59.1724
187.940428 75.178 -61.3776
189.302322 75.684 -63.9454
190.674085 76.140 -68.2065
192.055788 76.433 -74.0411
193.447503 76.540 -80.0553
194.849303 76.524 -86.0319
196.261262 76.364 -93.2737
197.683452 75.918 -101.9976
199.115948 75.069 -110.6285
200.558824 73.832 -116.9535
202.012156 72.376 -119.9822
203.476019 70.886 -121.7042
204.950490 69.332 -124.7043
206.435646 67.468 -129.0919
207.931564 65.099 -131.2812
209.438322 62.945 -113.9943
210.955998 63.572 -32.3361
212.484672 66.470 -17.5619
214.024424 69.178 -24.8055
215.575333 71.028 -39.0731
217.137481 71.883 -57.7069
218.710948 71.652 -78.3514
220.295818 70.332 -98.1064
221.892172 68.090 -116.3334
223.500094 65.644 -137.6942
225.119668 65.088 38.9281
226.750978 66.732 15.1920
228.394109 68.324 -3.3274
230.049147 69.080 -19.0425
231.716178 69.115 -30.3469
233.395289 68.780 -36.6195
235.086567 68.455 -39.1649
236.790102 68.471 -39.8751
238.505980 68.975 -41.5288
240.234293 69.577 -52.1732
241.975130 69.567 -73.7727
243.728581 68.656 -104.2002
245.494739 67.366 -157.4869
247.273695 67.108 77.1387
249.065542 68.088 28.8328
250.870374 68.996 -4.5873
252.688284 69.317 -37.1007
254.519367 69.414 -74.2059
256.363720 70.049 -122.5458
258.221437 71.446 -176.2546
260.092616 72.980 139.9402
261.977354 74.037 105.5913
263.875750 74.313 77.2590
265.787903 73.719 55.1345
267.713911 72.468 43.0116
269.653877 71.278 43.6356
271.607900 71.009 49.7767
273.576083 71.545 50.6792
275.558528 72.062 44.7197
277.555338 72.175 38.2886
279.566619 72.037 34.4645
281.592474 71.827 31.8112
283.633009 71.599 29.7068
285.688331 71.228 25.6235
287.758546 70.544 22.1578
289.843763 69.914 28.3048
291.944090 70.058 38.3307
294.059638 70.736 38.9088
296.190515 71.107 31.1755
298.336833 70.645 20.7286
300.498705 69.489 19.6570
302.676243 68.795 35.0244
304.869559 69.569 47.9104
307.078770 71.024 47.8408
309.303989 72.025 35.8362
311.545334 72.100 18.6498
313.802919 71.142 0.3943
316.076865 69.102 -15.8196
318.367288 66.008 -21.0839
320.674309 62.511 -2.4382
322.998047 61.285 27.7858
325.338624 63.701 141.7174
327.696162 66.558 130.4926
330.070783 68.529 113.5861
332.462612 69.582 98.1156
334.871773 69.783 84.2012
337.298392 69.385 76.7002
339.742595 69.131 80.4459
342.204510 69.448 82.2452
344.684265 69.808 76.4858
347.181989 69.949 71.6062
349.697813 70.014 67.3613
352.231868 69.908 60.0701
354.784285 69.390 51.0297
357.355198 68.462 45.0459
359.944741 67.704 49.2396
362.553049 67.712 51.1345
365.180258 67.780 39.1959
367.826505 67.049 23.0997
370.491927 65.541 11.4019
373.176665 63.655 -0.8417
375.880856 61.395 -13.7974
378.604644 58.973 -10.0963
381.348169 57.332 -15.3835
384.111575 56.693 -42.5039
386.895006 57.211 -71.7759
389.698607 59.111 -51.0963
392.522524 61.536 -55.1472
395.366904 63.368 -88.2908
398.231895 64.095 -120.6875
401.117648 63.645 -148.1465
404.024312 62.208 -167.3462
406.952038 60.742 -154.4023
409.900981 61.129 -112.2900
412.871292 62.799 -115.2605
415.863128 64.373 -123.6221
418.876643 65.478 -134.0713
421.911996 65.891 -147.3660
424.969344 65.581 -160.5203
428.048847 64.675 -168.8599
431.150666 63.985 -153.5366
434.274961 64.253 -146.1433
437.421897 64.463 -157.4370
440.591636 63.975 -167.4346
443.784345 63.135 -171.2852
447.000189 62.323 -176.0767
450.239337 61.338 173.3018
453.501956 59.729 157.1709
456.788219 57.193 139.1528
460.098294 54.755 156.8901
463.432356 55.810 -49.5238
466.790578 58.908 -53.3940
470.173135 61.256 -71.2166
473.580203 62.365 -92.9910
477.011961 62.177 -115.4641
480.468586 60.783 -131.4321
483.950259 59.237 -114.9456
487.457163 59.162 -91.0664
490.989478 59.470 -105.1685
494.547390 58.652 -123.3447
498.131084 56.716 -128.4131
501.740748 54.606 -122.6309
505.376568 53.283 -123.3552
509.038735 53.467 -84.0200
512.727439 54.813 -69.8633
516.442874 55.446 -95.3018
520.185232 54.658 -116.2659
523.954708 53.089 -110.3604
527.751500 51.642 -121.8765
531.575805 50.836 -149.7590
535.427822 50.749 167.7729
539.307753 51.393 115.1794
543.215800 52.880 -2.5525
547.152165 54.811 -145.0867
551.117055 56.389 170.9907
555.110677 57.225 138.9790
559.133237 57.470 114.8220
563.184947 57.139 96.9626
567.266018 56.799 101.2688
571.376661 56.893 95.6985
575.517092 56.325 70.9106
579.687526 54.824 45.9111
583.888181 54.313 -56.1287
588.119275 55.849 -144.4470
592.381030 57.707 -170.1025
596.673667 59.536 177.4480
600.997410 61.636 175.1365
605.352485 63.152 158.3735
609.739119 63.162 131.5918
614.157540 62.102 115.7563
618.607979 62.580 -175.5747
623.090667 64.823 -166.3413
627.605839 66.172 166.8379
632.153730 65.950 140.6165
636.734576 64.699 125.2996
641.348617 63.087 112.9165
645.996094 61.195 100.8511
650.677248 59.359 114.7209
655.392323 58.510 140.0581
660.141566 58.657 140.6638
664.925224 59.591 136.5864
669.743546 60.827 123.9106
674.596784 62.337 112.4727
679.485191 63.643 86.1895
684.409020 64.090 50.0054
689.368530 63.902 13.4104
694.363979 63.235 -27.2229
699.395626 61.739 -72.0430
704.463736 59.901 -123.5696
709.568570 59.211 153.0962
714.710396 60.178 102.0325
719.889483 62.100 73.0750
725.106099 63.558 42.9102
730.360516 63.769 15.3569
735.653010 63.056 6.0959
740.983855 62.615 6.1331
746.353329 62.352 -3.2935
751.761713 61.841 -10.5686
757.209288 60.898 -17.7878
762.696339 59.743 -15.4202
768.223151 59.840 3.6658
773.790013 61.858 20.5642
779.397214 64.286 23.7156
785.045047 65.614 3.7170
790.733808 65.427 -21.0354
796.463791 64.235 -42.8223
802.235296 62.519 -61.3870
808.048623 61.209 -77.9463
813.904077 61.076 -140.4417
819.801961 61.888 101.9844
825.742584 62.612 48.7090
831.726255 62.467 13.7036
837.753287 62.492 -2.2268
843.823992 63.594 -16.9888
849.938689 64.324 -50.0625
856.097695 63.904 -89.0613
862.301332 62.587 -131.1208
868.549922 60.542 -179.1382
874.843793 59.041 62.5474
881.183272 59.653 -40.5723
887.568689 60.629 -85.1660
894.000378 60.892 -117.4502
900.478673 61.282 -130.0488
907.003913 62.519 -148.2354
913.576437 63.326 175.5703
920.196588 63.057 133.3052
926.864712 62.012 91.2544
933.581156 61.184 41.5562
940.346270 60.982 -46.1284
947.160407 61.390 -125.3828
954.023921 62.499 -176.5088
960.937172 63.584 142.3896
967.900519 64.105 105.6479
974.914325 63.763 70.4482
981.978956 62.371 38.1890
989.094780 60.172 7.7583
996.262169 57.717 -33.3726
1003.481495 56.699 -143.8892
1010.753136 58.022 145.2720
1018.077470 59.078 100.6724
1025.454879 58.873 54.7681
1032.885748 57.948 -100.8950
1040.370463 57.578 166.6655
1047.909417 57.904 130.5249
1055.503000 57.957 93.1860
1063.151610 56.931 45.6694
1070.855645 54.995 -33.2476
1078.615506 54.246 -103.6279
1086.431599 54.494 -136.4619
1094.304330 54.071 -130.9204
1102.234110 54.161 -111.4624
1110.221353 54.831 -119.7710
1118.266475 55.022 -135.1758
1126.369895 55.297 -159.8970
1134.532035 56.665 69.6328
1142.753322 58.800 0.7075
1151.034184 60.164 -35.0298
1159.375052 59.997 -63.4312
1167.776361 58.713 -79.7271
1176.238550 57.156 -83.2559
1184.762060 55.856 -91.9736
1193.347334 54.879 -82.1006
1201.994821 55.369 -102.4448
1210.704971 57.139 76.5249
1219.478238 58.384 36.4800
1228.315080 58.391 3.5303
1237.215957 57.261 -24.9912
1246.181334 55.298 -47.3003
1255.211678 53.548 -34.2314
1264.307459 52.806 -63.1846
1273.469152 52.411 -131.8018
1282.697235 52.790 -176.0312
1291.992188 53.844 138.4585
1301.354495 54.867 -86.5000
1310.784647 55.722 -121.6987
1320.283132 56.332 -144.6157
1329.850448 56.109 -173.0459
1339.487093 54.776 162.8037
1349.193569 54.075 -82.2710
1358.970381 56.059 -56.0752
1368.818041 58.923 -68.3999
1378.737061 60.661 -97.7656
1388.727958 60.840 -132.7593
1398.791253 60.128 -166.5859
1408.927471 60.076 155.2642
1419.137140 60.290 107.7935
1429.420793 59.495 70.9224
1439.778965 58.128 51.9863
1450.212197 57.124 47.9844
1460.721033 57.524 89.5669
1471.306019 58.756 91.6499
1481.967709 59.404 90.6499
1492.706658 60.663 123.2954
1503.523426 62.269 113.4922
1514.418576 62.570 85.9268
1525.392678 61.082 52.4404
1536.446302 58.252 -10.6733
1547.580025 56.079 -140.8672
1558.794428 56.580 -139.3916
1570.090095 58.008 -143.9355
1581.467615 59.432 -129.8491
1592.927581 60.544 -128.5664
1604.470591 60.167 -149.1665
1616.097246 58.653 -115.8164
1627.808153 57.651 -71.2241
1639.603922 57.808 -54.6479
1651.485168 57.813 -54.9634
1663.452510 57.035 -31.1953
1675.506573 56.686 -8.0527
1687.647984 57.233 4.4316
1699.877377 58.785 40.4097
1712.195390 60.473 45.2617
1724.602663 60.966 28.4634
1737.099845 59.925 8.4600
1749.687587 57.751 14.9854
1762.366544 56.125 119.4331
1775.137379 56.575 145.8354
1788.000756 57.943 162.6934
1800.957346 58.602 172.1567
1814.007826 58.294 179.6240
1827.152874 57.693 -151.5557
1840.393177 58.220 -125.4023
1853.729425 59.445 -109.1719
1867.162312 60.444 -103.5571
1880.692540 60.168 -119.5308
1894.320813 58.567 -126.9424
1908.047843 56.990 -90.1582
1921.874344 56.552 -7.3579
1935.801038 56.857 20.6235
1949.828650 57.607 35.2158
1963.957912 58.313 30.5459
1978.189561 59.484 97.9497
1992.524338 60.661 103.9854
2006.962991 60.416 86.0322
2021.506272 59.309 96.0347
2036.154940 58.864 137.9062
2050.909758 59.126 -166.0488
2065.771495 59.062 -173.7598
2080.740927 58.255 -167.0112
2095.818833 58.398 -128.3882
2111.006001 59.929 -80.2651
2126.303220 60.796 -86.2754
2141.711290 60.616 -84.0747
2157.231013 60.203 -80.6152
2172.863198 60.000 -46.6699
2188.608660 59.980 -37.6631
2204.468221 59.700 54.9810
2220.442706 58.807 47.8657
2236.532950 57.857 76.8257
2252.739789 58.003 113.4663
2269.064070 58.916 125.4814
2285.506644 59.829 135.1548
2302.068367 59.833 124.9243
2318.750104 59.232 -164.3696
2335.552723 58.968 -144.8750
2352.477101 58.303 -150.6177
2369.524119 58.075 -107.3618
2386.694668 58.644 -77.7251
2403.989641 59.422 -20.7305
2421.409941 59.691 -35.5605
2438.956476 59.224 -27.3877
2456.630160 59.211 39.3877
2474.431915 59.811 54.6201
2492.362668 59.980 59.7500
2510.423356 59.042 53.3115
2528.614918 58.009 55.7485
2546.938304 57.715 127.6533
2565.394469 56.689 164.0645
2583.984375 55.593 -143.0449
2602.708991 56.244 -92.1250
2621.569293 57.386 -87.9971
2640.566265 57.466 -110.4634
2659.700897 56.855 -105.9307
2678.974186 56.308 -60.9634
2698.387137 55.907 -133.8413
2717.940763 57.088 173.8779
2737.636082 59.255 163.3506
2757.474121 60.632 151.9731
2777.455915 60.901 125.7778
2797.582506 60.857 103.0508
2817.854942 60.985 -134.0088
2838.274281 60.547 -45.7344
2858.841586 60.406 -55.4087
2879.557931 60.522 -75.6807
2900.424394 59.886 -80.0840
2921.442065 59.117 -76.0317
2942.612039 59.618 -178.2603
2963.935418 60.891 116.5405
2985.413316 61.387 87.6162
3007.046852 61.413 51.2705
3028.837153 60.479 -141.0601
3050.785356 58.536 175.7104
3072.892604 56.814 156.2656
3095.160050 56.239 159.1743
3117.588856 56.450 91.8799
3140.180190 56.773 67.4746
3162.935230 57.366 68.3599
3185.855163 58.536 75.7700
3208.941182 59.373 59.7847
3232.194493 59.328 42.5693
3255.616307 59.182 176.0747
3279.207844 59.128 -85.3057
3302.970336 59.142 -87.2905
3326.905021 59.268 -86.7798
3351.013146 59.573 -101.6450
3375.295969 59.397 14.3130
3399.754755 58.330 -1.5317
3424.390779 57.789 -100.5254
3449.205326 58.590 167.6577
3474.199690 59.053 146.8467
3499.375173 59.216 145.4028
3524.733088 59.542 -129.0254
3550.274757 59.499 -102.4453
3576.001511 59.273 -70.4219
3601.914692 59.670 -32.6143
3628.015651 59.953 -41.2764
3654.305748 59.798 -50.5605
3680.786354 59.564 75.4473
3707.458849 59.755 -143.0259
3734.324624 60.250 -162.6362
3761.385080 60.945 -144.7881
3788.641627 61.565 -130.1167
3816.095686 61.217 -144.0254
3843.748688 60.257 175.9106
3871.602076 60.122 65.8467
3899.657300 61.279 77.2612
3927.915825 62.724 77.4238
3956.379122 62.988 54.2202
3985.048676 61.775 25.8037
4013.925981 61.051 1.2417
4043.012544 62.305 -27.3672
4072.309879 63.259 -58.9336
4101.819515 62.931 -76.6104
4131.542990 62.013 -83.6694
4161.481854 60.904 -122.0698
4191.637667 60.097 -171.3975
4222.012001 60.183 172.0752
4252.606441 60.271 148.4023
4283.422580 59.628 97.7358
4314.462026 58.950 44.9058
4345.726396 58.810 41.7422
4377.217321 59.494 36.6855
4408.936442 60.360 20.0166
4440.885413 60.490 -25.1938
4473.065899 60.242 -85.0894
4505.479579 60.478 -117.6699
4538.128141 60.641 -142.1724
4571.013288 60.190 -161.1328
4604.136735 59.642 176.5342
4637.500207 59.594 133.3467
4671.105446 60.167 121.7744
4704.954201 60.780 112.0659
4739.048239 60.838 86.8447
4773.389336 60.748 43.9385
4807.979283 60.803 2.7944
4842.819883 61.136 -22.0322
4877.912952 61.040 -56.4800
4913.260320 60.519 -95.0410
4948.863830 60.864 -121.1836
4984.725337 61.288 -143.3828
5020.846712 60.438 -171.5820
5057.229836 58.950 154.0693
5093.876609 58.612 106.1948
5130.788938 59.180 67.5737
5167.968750 59.586 45.0825
5205.417982 59.810 14.1553
5243.138586 60.233 -6.2983
5281.132530 60.523 -35.6274
5319.401793 60.027 -72.0425
5357.948371 59.045 -109.4326
5396.774274 58.763 -123.1567
5435.881525 59.105 -155.4751
5475.272163 59.822 151.2051
5514.948243 60.651 102.2881
5554.911831 60.356 68.8022
5595.165012 59.115 39.6099
5635.709884 58.377 -34.3086
5676.548561 58.712 -73.3574
5717.683172 58.511 -106.6465
5759.115861 58.009 125.0469
5800.848789 58.208 84.7700
5842.884130 58.584 123.8286
5885.224077 59.078 -166.1733
5927.870837 59.618 -171.3320
5970.826633 59.052 106.0903
6014.093704 58.235 58.8867
6057.674306 58.277 67.4995
6101.570711 58.590 53.8257
6145.785208 58.889 -32.4878
6190.320101 59.565 -68.0093
6235.177712 60.488 -29.8750
6280.360380 60.964 -52.5962
6325.870460 61.085 -134.4741
6371.710325 61.636 -160.3115
6417.882365 61.904 172.5405
6464.388986 61.603 110.7935
6511.232613 61.748 51.0742
6558.415689 61.195 23.0010
6605.940673 59.640 11.0723
6653.810042 59.104 -51.5850
6702.026292 59.691 -89.9453
6750.591937 59.951 -128.1680
6799.509509 60.079 170.1514
6848.781558 60.289 147.2173
6898.410653 60.614 126.9238
6948.399380 60.457 81.3872
6998.750346 59.734 34.3848
7049.466176 58.832 11.3271
7100.549514 58.322 -6.2036
7152.003023 58.211 -56.9390
7203.829385 57.927 -97.1533
7256.031302 57.541 -145.9175
7308.611496 57.572 149.6108
7361.572708 57.836 102.3784
7414.917698 58.690 46.6987
7468.649249 59.970 -1.1128
7522.770160 60.525 -46.6836
7577.283253 60.287 -112.3599
7632.191371 60.077 -153.3062
7687.497376 59.991 177.2690
7743.204151 60.390 136.7476
7799.314600 60.725 93.3979
7855.831649 59.839 44.5425
7912.758244 58.800 -11.3896
7970.097352 58.523 -62.4468
8027.851962 58.233 -109.1230
8086.025087 57.335 -169.0645
8144.619758 56.542 130.5742
8203.639030 56.258 67.2559
8263.085980 56.138 20.0918
8322.963708 56.312 -13.1465
8383.275334 56.523 -53.8975
8444.024002 56.524 -110.7529
8505.212881 56.829 -137.6338
8566.845160 57.458 -171.1738
8628.924051 57.829 134.2197
8691.452792 57.730 86.3037
8754.434642 57.115 46.4395
8817.872884 56.789 -16.2842
8881.770826 57.046 -57.9375
8946.131799 57.132 -105.8584
9010.959157 57.330 -160.6016
9076.256282 58.017 152.9863
9142.026576 58.884 82.8594
9208.273470 58.865 24.3975
9275.000415 57.895 -36.9219
9342.210891 57.362 -95.6699
9409.908403 56.840 -135.9736
9478.096478 56.618 179.5205
9546.778672 56.875 119.7832
9615.958566 57.252 54.5020
9685.639765 57.059 -3.9238
9755.825904 56.453 -70.8242
9826.520640 56.276 -130.5537
9897.727659 56.660 158.1689
9969.450674 56.752 96.6348
10041.693423 56.281 36.3799
10114.459673 55.993 -14.6904
10187.753217 55.998 -61.3936
10261.577877 56.361 -118.2627
10335.937500 56.307 -179.5205
10410.835964 55.129 115.0615
10486.277173 53.489 100.5059
10562.265060 53.146 104.3936
10638.803587 53.979 45.7471
10715.896743 54.047 -26.7363
10793.548548 53.461 -76.2939
10871.763050 53.196 -121.5303
10950.544327 53.573 -169.1924
11029.896485 53.937 128.8096
11109.823662 54.186 54.7246
11190.330024 54.600 -35.0293
11271.419768 54.849 -124.8984
11353.097122 55.022 153.8633
11435.366344 55.368 75.9395
11518.231722 55.844 -3.0674
11601.697577 56.324 -76.5596
11685.768261 56.904 -140.3760
11770.448155 57.133 157.3936
11855.741674 56.628 91.5029
11941.653265 55.963 23.6934
12028.187408 55.844 -46.7549
12115.348612 55.874 -119.8438
12203.141422 55.736 162.7061
12291.570415 55.296 83.7773
12380.640201 54.940 10.3037
12470.355424 54.737 -62.3301
12560.720760 54.335 -136.6455
12651.740920 54.080 154.8887
12743.420650 54.433 85.1416
12835.764729 55.046 4.3809
12928.777972 55.334 -81.3750
13022.465227 55.193 -164.8320
13116.831378 54.753 112.0137
13211.881345 54.020 28.6885
13307.620084 53.419 -51.0996
13404.052584 53.297 -130.9365
13501.183875 53.052 145.2363
13599.019019 52.080 61.6191
13697.563116 51.533 -19.7588
13796.821305 51.900 -98.8574
13896.798760 51.847 -177.6807
13997.500692 51.367 100.0391
14098.932352 51.410 19.7090
14201.099028 51.691 -64.3154
14304.006046 51.336 -156.2002
14407.658770 50.449 105.7393
14512.062604 50.061 -2.0752
14617.222992 49.963 173.0537
14723.145416 49.458 1.8936
14829.835397 48.846 162.4209
14937.298497 48.250 5.3213
15045.540320 47.982 100.7812
15154.566507 47.806 -9.2803
15264.382743 47.373 -121.1299
15374.994752 47.516 137.2158
15486.408302 47.325 53.1016
15598.629201 46.336 -26.6611
15711.663298 45.718 -107.9600
15825.516487 45.673 169.7500
15940.194703 45.763 84.7031
16055.703925 45.454 -9.0469
16172.050174 45.172 -110.1270
16289.239516 45.324 143.3125
16407.278061 46.232 46.2090
16526.171961 47.556 -50.0117
16645.927415 48.534 -156.1416
16766.550667 49.193 94.4580
16888.048005 49.205 -17.4033
17010.425762 48.090 -123.6689
17133.690320 46.294 140.6113
17257.848103 44.718 44.0312
17382.905584 43.831 -55.4688
17508.869284 43.607 -166.2754
17635.745768 43.536 81.1445
17763.541652 42.927 -17.2402
17892.263597 42.501 -99.0137
18021.918315 42.400 162.5107
18152.512564 41.908 48.7705
18284.053153 41.367 -59.6211
18416.546939 41.040 -150.4922
18550.000830 41.146 105.5947
18684.421783 41.233 -11.4199
18819.816805 40.598 -127.1328
18956.192956 39.355 126.1797
19093.557344 38.205 17.1289
19231.917131 37.319 -96.9375
19371.279531 36.243 149.8887
19511.651807 35.119 37.4863
19653.041280 34.375 -75.8984
19795.455318 33.354 171.0996
19938.901348 32.223 58.8262
