* Measurement data measured by REW V5.31
* Source: Scarlett 2i4 USB, MICROPHONE, R, volume: no control. Timing signal peak level -30.8 dBFS, measurement signal peak level -25.4 dBFS
* Format: 512k Log Swept Sine, 1 sweep at -18.0 dBFS using an acoustic timing reference
* Dated: Apr 16, 2024 9:38:55 AM
* REW Settings:
*  C-weighting compensation: Off
*  Target level: 75.0 dB
* Note: ; Delay -0.0157 ms (-5.4 mm, -0.21 in) using estimated IR delay relative to Acoustic reference played from SPEAKER L with no timing offset
* Measurement: pillows-and-throws-p1-l
* Smoothing: 1/48 octave
* Frequency Step: 96 ppo
* Start Frequency: 10.093689 Hz
*
* Freq(Hz) SPL(dB) Phase(degrees)
10.093689 19.739 22.5930
10.166832 20.200 18.3833
10.240505 20.754 13.7353
10.314712 21.321 9.0243
10.389457 21.873 4.4448
10.464743 22.341 -0.0526
10.540575 22.680 -5.0720
10.616956 22.930 -10.3666
10.693891 23.106 -15.5914
10.771383 23.213 -20.4861
10.849437 23.253 -25.5671
10.928057 23.220 -31.1114
11.007246 23.106 -36.7490
11.087009 22.907 -42.0651
11.167350 22.627 -47.1197
11.248273 22.269 -52.6514
11.329783 21.800 -58.4043
11.411883 21.184 -63.8729
11.494578 20.415 -68.6836
11.577873 19.515 -73.6502
11.661771 18.418 -78.7007
11.746277 17.003 -83.1850
11.831395 15.024 -85.8576
11.917130 12.307 -86.0206
12.003487 9.475 -80.3346
12.090469 7.737 -56.3088
12.178081 8.365 -8.9016
12.266329 10.865 14.7416
12.355216 13.832 20.3002
12.444747 16.338 19.8055
12.534926 18.182 16.3875
12.625760 19.703 11.8490
12.717251 20.995 7.1833
12.809406 22.098 2.5793
12.902228 22.991 -2.7071
12.995723 23.695 -8.1800
13.089895 24.263 -13.2015
13.184750 24.726 -17.7887
13.280292 25.065 -22.7098
13.376526 25.290 -27.3785
13.473458 25.415 -31.1473
13.571093 25.427 -34.4590
13.669434 25.344 -37.4456
13.768489 25.213 -39.5190
13.868261 25.039 -40.1758
13.968756 24.821 -39.6572
14.069979 24.693 -38.0019
14.171936 24.792 -35.2717
14.274632 25.124 -31.1963
14.378072 25.660 -26.9399
14.482261 26.395 -23.8886
14.587206 27.354 -21.7180
14.692910 28.449 -20.5188
14.799381 29.532 -20.8184
14.906624 30.550 -22.4026
15.014643 31.522 -24.6621
15.123446 32.413 -27.5294
15.233036 33.198 -31.0989
15.343421 33.887 -35.1400
15.454606 34.479 -39.2951
15.566596 34.974 -43.6799
15.679398 35.370 -48.4372
15.793018 35.668 -53.0835
15.907460 35.869 -57.6623
16.022732 35.970 -62.4907
16.138840 35.969 -67.0468
16.255788 35.865 -71.3236
16.373585 35.655 -75.6284
16.492234 35.335 -79.4404
16.611744 34.899 -82.7088
16.732119 34.353 -85.5603
16.853367 33.703 -87.5305
16.975494 32.934 -88.3141
17.098505 32.116 -87.8267
17.222408 31.334 -85.7780
17.347209 30.599 -81.4917
17.472914 30.078 -75.5697
17.599530 29.937 -68.8381
17.727063 30.124 -61.7904
17.855521 30.529 -56.0434
17.984909 31.128 -51.9353
18.115235 31.806 -49.2375
18.246506 32.420 -47.7514
18.378727 32.969 -47.2928
18.511907 33.439 -47.2627
18.646052 33.815 -47.5676
18.781169 34.114 -48.0655
18.917265 34.355 -48.3873
19.054347 34.545 -48.6365
19.192423 34.714 -48.6730
19.331499 34.875 -48.4280
19.471583 35.044 -47.9951
19.612682 35.243 -47.4142
19.754804 35.474 -46.6985
19.897956 35.744 -46.0505
20.042144 36.055 -45.4464
20.187378 36.399 -45.0324
20.333664 36.772 -44.8534
20.481010 37.166 -44.9186
20.629424 37.570 -45.3093
20.778913 37.981 -45.9687
20.929486 38.385 -46.9455
21.081150 38.778 -48.2015
21.233912 39.151 -49.6939
21.387782 39.496 -51.4379
21.542767 39.809 -53.3038
21.698874 40.082 -55.3004
21.856113 40.316 -57.3071
22.014492 40.511 -59.2312
22.174018 40.672 -61.0461
22.334700 40.810 -62.5792
22.496546 40.936 -63.8770
22.659566 41.074 -64.8405
22.823766 41.235 -65.5272
22.989157 41.441 -66.0529
23.155745 41.694 -66.4463
23.323542 41.991 -66.9702
23.492554 42.322 -67.5973
23.662790 42.660 -68.4826
23.834261 42.991 -69.5517
24.006973 43.288 -70.6897
24.180938 43.546 -71.8230
24.356163 43.767 -72.6191
24.532658 43.969 -73.0509
24.710431 44.195 -72.7930
24.889493 44.489 -72.0133
25.069853 44.913 -70.7202
25.251519 45.485 -69.4985
25.434502 46.217 -68.6169
25.618811 47.048 -68.7294
25.804456 47.935 -69.8315
25.991445 48.799 -72.1181
26.179790 49.602 -75.3516
26.369500 50.298 -79.3686
26.560584 50.871 -83.9375
26.753053 51.303 -88.8220
26.946917 51.595 -93.7223
27.142185 51.744 -98.5469
27.338869 51.767 -102.8120
27.536977 51.683 -106.5082
27.736522 51.541 -109.1583
27.937512 51.399 -110.8304
28.139959 51.332 -111.3430
28.343872 51.417 -111.2863
28.549264 51.685 -110.9130
28.756143 52.119 -111.1951
28.964522 52.655 -112.3354
29.174411 53.219 -114.6272
29.385821 53.734 -117.9223
29.598763 54.161 -122.0368
29.813248 54.464 -126.7253
30.029287 54.633 -131.6028
30.246891 54.663 -136.5982
30.466073 54.561 -141.2523
30.686842 54.342 -145.4221
30.909212 54.027 -148.8874
31.133193 53.659 -151.3541
31.358797 53.289 -152.7921
31.586035 52.973 -153.0920
31.814921 52.781 -152.5549
32.045465 52.749 -151.5681
32.277680 52.887 -150.5462
32.511577 53.163 -150.0476
32.747169 53.523 -150.2789
32.984469 53.917 -151.2871
33.223488 54.297 -153.0374
33.464239 54.629 -155.3128
33.706735 54.896 -157.9262
33.950987 55.092 -160.7031
34.197010 55.223 -163.3816
34.444816 55.308 -165.8223
34.694417 55.370 -167.9503
34.945827 55.442 -169.7253
35.199059 55.552 -171.2973
35.454126 55.712 -172.8919
35.711041 55.914 -174.7128
35.969818 56.135 -176.9602
36.230470 56.334 -179.7249
36.493011 56.476 177.0896
36.757455 56.535 173.6304
37.023814 56.496 170.0842
37.292104 56.354 166.7132
37.562338 56.124 163.7723
37.834530 55.831 161.4100
38.108695 55.505 159.7177
38.384846 55.178 158.7042
38.662999 54.875 158.2655
38.943167 54.607 158.2334
39.225365 54.367 158.5143
39.509608 54.146 159.1129
39.795911 53.938 160.1331
40.084289 53.752 161.7585
40.374756 53.618 164.1963
40.667328 53.594 167.5847
40.962020 53.755 171.8707
41.258848 54.171 176.7080
41.557827 54.879 -178.5576
41.858972 55.858 -174.7244
42.162299 57.036 -172.4490
42.467824 58.319 -172.0613
42.775564 59.614 -173.5768
43.085533 60.850 -176.8141
43.397749 61.979 178.4946
43.712227 62.970 172.6400
44.028983 63.805 165.9079
44.348036 64.473 158.5619
44.669400 64.971 150.8442
44.993093 65.300 142.9838
45.319131 65.463 135.2022
45.647532 65.473 127.7186
45.978313 65.348 120.7462
46.311491 65.115 114.4779
46.647083 64.812 109.0546
46.985107 64.484 104.5201
47.325581 64.179 100.7791
47.668521 63.930 97.5994
48.013947 63.746 94.6906
48.361876 63.617 91.8290
48.712326 63.517 88.9506
49.065315 63.435 86.1453
49.420863 63.379 83.5570
49.778987 63.380 81.2388
50.139706 63.472 79.0490
50.503039 63.674 76.6817
50.869005 63.972 73.8229
51.237623 64.340 70.3033
51.608912 64.756 66.1022
51.982891 65.219 61.2031
52.359580 65.734 55.4386
52.739000 66.287 48.4772
53.121168 66.830 39.9785
53.506106 67.290 29.7818
53.893833 67.588 17.9501
54.284370 67.654 4.7300
54.677737 67.440 -9.4922
55.073955 66.913 -24.2496
55.473043 66.059 -39.0216
55.875024 64.885 -53.2590
56.279917 63.428 -66.4468
56.687745 61.767 -78.1356
57.098527 60.031 -88.2888
57.512287 58.376 -97.5933
57.929045 56.912 -107.2432
58.348822 55.657 -118.2446
58.771642 54.581 -131.0082
59.197525 53.706 -145.3409
59.626495 53.146 -160.8307
60.058573 53.032 -177.0790
60.493782 53.386 166.1909
60.932145 54.067 149.2183
61.373685 54.873 132.2500
61.818424 55.632 115.5564
62.266386 56.236 99.4706
62.717593 56.639 84.2372
63.172071 56.842 70.2159
63.629842 56.899 57.7843
64.090930 56.897 47.0496
64.555359 56.944 37.8019
65.023154 57.111 29.4330
65.494339 57.397 21.2960
65.968938 57.759 13.0362
66.446976 58.162 4.7038
66.928478 58.608 -3.5290
67.413469 59.122 -11.6570
67.901975 59.707 -19.8870
68.394021 60.337 -28.4626
68.889632 60.965 -37.4132
69.388835 61.561 -46.5269
69.891655 62.128 -55.5262
70.398118 62.697 -64.2190
70.908252 63.302 -72.6904
71.422083 63.950 -81.2736
71.939636 64.606 -90.2915
72.460941 65.210 -99.8544
72.986023 65.711 -109.7670
73.514909 66.093 -119.6304
74.047629 66.378 -129.0934
74.584208 66.612 -138.0079
75.124676 66.838 -146.5459
75.669061 67.062 -155.0822
76.217390 67.251 -163.9923
76.769692 67.348 -173.4431
77.325997 67.285 176.5840
77.886333 67.000 166.3167
78.450730 66.430 156.0663
79.019216 65.506 146.3137
79.591822 64.148 138.0217
80.168577 62.310 133.3108
80.749512 60.227 137.9348
81.334656 59.146 162.6753
81.924040 60.428 -169.6267
82.517696 62.841 -161.7766
83.115653 65.101 -164.2202
83.717943 66.931 -170.7985
84.324598 68.346 -179.2397
84.935649 69.404 171.6125
85.551128 70.181 162.5043
86.171066 70.761 153.7988
86.795497 71.208 145.4746
87.424453 71.548 137.3936
88.057967 71.796 129.6248
88.696071 71.990 122.3583
89.338800 72.185 115.5593
89.986185 72.423 108.8806
90.638262 72.714 101.9060
91.295065 73.044 94.1951
91.956626 73.357 85.1118
92.622982 73.524 74.1422
93.294166 73.375 61.5647
93.970214 72.783 48.6385
94.651161 71.733 37.2284
95.337042 70.359 29.0315
96.027894 68.920 24.3374
96.723752 67.653 21.5736
97.424652 66.623 19.0614
98.130631 65.766 16.1732
98.841726 64.988 12.6899
99.557974 64.191 8.7157
100.279412 63.318 4.7893
101.006078 62.370 1.3118
101.738010 61.371 -1.7427
102.475245 60.334 -4.4000
103.217823 59.287 -6.6078
103.965782 58.270 -8.8873
104.719161 57.262 -12.2997
105.477999 56.148 -17.3282
106.242336 54.812 -23.5035
107.012212 53.216 -30.3152
107.787666 51.441 -38.2467
108.568740 49.740 -49.7606
109.355474 48.656 -69.8077
110.147909 48.813 -101.1121
110.946086 50.141 -134.2545
111.750047 51.954 -159.2233
112.559834 53.766 -176.6624
113.375489 55.392 170.2720
114.197055 56.746 159.2323
115.024574 57.783 149.3044
115.858089 58.525 140.7474
116.697645 59.058 133.8031
117.543284 59.449 128.0336
118.395051 59.696 122.9314
119.252990 59.777 118.7003
120.117147 59.733 116.1686
120.987565 59.707 116.1433
121.864291 59.905 118.4219
122.747370 60.460 121.5391
123.636848 61.329 123.5770
124.532771 62.319 123.1719
125.435187 63.227 120.4493
126.344142 63.982 116.9780
127.259684 64.697 114.4431
128.181860 65.552 112.8663
129.110718 66.570 110.1869
130.046308 67.579 104.8936
130.988677 68.404 97.3311
131.937875 68.964 88.5223
132.893951 69.257 79.4077
133.856956 69.338 70.6652
134.826938 69.300 62.6543
135.803950 69.244 55.0435
136.788041 69.179 46.4227
137.779264 68.953 35.5551
138.777669 68.347 22.7328
139.783309 67.198 9.1088
140.796237 65.401 -4.3044
141.816504 62.869 -16.4583
142.844165 59.697 -23.1830
143.879273 57.217 62.0601
144.921881 57.790 103.6705
145.972045 59.777 98.6411
147.029819 61.416 91.9092
148.095257 62.529 85.9293
149.168417 63.280 81.4421
150.249353 63.945 79.5436
151.338121 64.858 80.1615
152.434780 66.128 80.1421
153.539385 67.506 75.9652
154.651995 68.652 67.2585
155.772667 69.348 55.5094
156.901460 69.512 42.7179
158.038432 69.175 30.5850
159.183644 68.399 19.7635
160.337154 67.201 10.6310
161.499023 65.582 4.5845
162.669312 63.693 4.5127
163.848081 62.206 16.6892
165.035392 62.319 38.3932
166.231306 63.675 44.9751
167.435887 64.893 38.7831
168.649196 65.463 28.9158
169.871298 65.404 19.2817
171.102255 64.853 11.3260
172.342133 63.971 6.1958
173.590995 62.986 4.0245
174.848907 62.002 1.2286
176.115934 60.791 -4.5907
177.392143 59.366 -6.2661
178.677599 59.245 41.6260
179.972371 61.287 76.4233
181.276525 63.500 69.0371
182.590129 65.010 57.1057
183.913252 65.945 46.4164
185.245964 66.535 36.9756
186.588332 66.869 27.6105
187.940428 66.930 18.0898
189.302322 66.708 8.9287
190.674085 66.258 0.9327
192.055788 65.739 -5.3245
193.447503 65.335 -11.7025
194.849303 65.006 -21.6515
196.261262 64.546 -36.4343
197.683452 63.872 -57.2688
199.115948 63.149 -88.1895
200.558824 62.903 -134.4515
202.012156 63.717 175.1366
203.476019 65.357 139.4569
204.950490 67.114 114.4536
206.435646 68.542 93.8257
207.931564 69.466 75.2434
209.438322 69.881 58.8147
210.955998 69.933 45.4945
212.484672 69.814 34.4590
214.024424 69.500 23.0282
215.575333 68.751 11.0775
217.137481 67.440 2.7465
218.710948 66.007 5.6473
220.295818 65.676 22.4685
221.892172 66.695 29.8024
223.500094 67.712 22.2742
225.119668 67.990 10.7678
226.750978 67.622 2.6602
228.394109 67.081 -0.0038
230.049147 66.617 -3.3239
231.716178 65.941 -9.3899
233.395289 65.139 -7.7032
235.086567 65.422 11.4349
236.790102 67.080 21.7866
238.505980 68.709 13.8562
240.234293 69.544 -1.0648
241.975130 69.551 -16.2996
243.728581 68.857 -30.4379
245.494739 67.443 -43.3038
247.273695 65.250 -50.1389
249.065542 62.740 -38.6128
250.870374 61.702 -4.4532
252.688284 63.194 16.9596
254.519367 65.423 19.5325
256.363720 67.185 12.1389
258.221437 68.246 1.1835
260.092616 68.681 -9.6489
261.977354 68.667 -18.4135
263.875750 68.447 -24.2615
265.787903 68.259 -28.2394
267.713911 68.269 -31.0782
269.653877 68.494 -34.8915
271.607900 68.614 -43.4424
273.576083 68.260 -53.9767
275.558528 67.445 -62.0001
277.555338 66.327 -68.9829
279.566619 64.910 -73.6365
281.592474 63.435 -71.3071
283.633009 62.254 -70.2559
285.688331 61.076 -76.0327
287.758546 60.259 -58.4553
289.843763 61.732 -0.0812
291.944090 64.554 4.9806
294.059638 66.886 -6.6450
296.190515 68.276 -23.5383
298.336833 68.697 -41.7419
300.498705 68.180 -58.2960
302.676243 66.868 -69.4607
304.869559 65.261 -69.0107
307.078770 64.579 -53.3962
309.303989 65.430 -43.5182
311.545334 66.743 -46.7076
313.802919 67.901 -53.0723
316.076865 68.948 -59.8257
318.367288 69.797 -70.0542
320.674309 70.201 -83.5166
322.998047 70.036 -97.5728
325.338624 69.436 -108.3301
327.696162 69.027 -110.2524
330.070783 69.399 -111.9304
332.462612 69.930 -124.6387
334.871773 69.798 -142.7593
337.298392 68.782 -159.0715
339.742595 67.209 -167.4644
342.204510 66.067 -164.2163
344.684265 66.298 -160.2332
347.181989 67.093 -170.3132
349.697813 67.352 172.4780
352.231868 66.913 156.1204
354.784285 65.970 142.1096
357.355198 64.865 134.2461
359.944741 64.492 136.3320
362.553049 65.205 134.6670
365.180258 65.854 119.9451
367.826505 65.807 104.3467
370.491927 65.744 99.2124
373.176665 66.340 95.3877
375.880856 66.912 81.0027
378.604644 66.961 66.5010
381.348169 66.896 57.4131
384.111575 66.959 47.0693
386.895006 66.773 33.4172
389.698607 66.155 22.8704
392.522524 65.474 17.7490
395.366904 65.146 14.8923
398.231895 65.336 13.0115
401.117648 65.643 4.8372
404.024312 65.528 -6.1846
406.952038 65.146 -11.7810
409.900981 65.243 -10.9873
412.871292 66.045 -13.7842
415.863128 66.948 -24.0154
418.876643 67.395 -39.7427
421.911996 67.090 -57.4856
424.969344 66.113 -73.1145
428.048847 64.570 -88.9546
431.150666 62.655 -97.6035
434.274961 62.074 -60.8118
437.421897 63.762 -38.2441
440.591636 65.557 -57.0266
443.784345 66.473 -81.0217
447.000189 66.833 -100.4680
450.239337 67.322 -117.6162
453.501956 67.779 -141.8037
456.788219 67.839 -169.1904
460.098294 67.517 162.5969
463.432356 66.834 134.6135
466.790578 66.049 110.9224
470.173135 65.530 87.4216
473.580203 64.685 58.5950
477.011961 62.871 35.1658
480.468586 61.322 48.4346
483.950259 62.852 91.5273
487.457163 65.708 83.9316
490.989478 67.778 59.8262
494.547390 68.881 34.1309
498.131084 69.269 10.3674
501.740748 69.089 -12.0308
505.376568 68.381 -32.3809
509.038735 67.265 -49.6343
512.727439 65.981 -63.4312
516.442874 64.892 -75.9297
520.185232 64.524 -87.8608
523.954708 65.100 -108.8093
527.751500 65.706 -150.4873
531.575805 65.796 146.1685
535.427822 65.521 74.4939
539.307753 64.797 19.3550
543.215800 63.393 -17.7429
547.152165 61.750 -28.6133
551.117055 61.636 -17.8423
555.110677 63.281 -21.0388
559.133237 65.139 -35.7278
563.184947 66.786 -53.9751
567.266018 68.219 -75.6418
571.376661 68.941 -104.4534
575.517092 68.508 -135.9185
579.687526 67.051 -159.0510
583.888181 65.467 -170.9443
588.119275 63.936 169.3530
592.381030 61.776 159.7290
596.673667 59.740 163.1602
600.997410 58.651 155.2151
605.352485 58.555 154.5063
609.739119 60.070 168.6069
614.157540 62.357 162.5415
618.607979 64.397 146.2549
623.090667 66.037 127.5247
627.605839 67.416 108.5698
632.153730 68.743 93.8579
636.734576 69.662 72.5774
641.348617 69.435 45.6553
645.996094 68.532 27.6504
650.677248 67.846 7.5273
655.392323 67.230 -19.7563
660.141566 66.871 -52.7136
664.925224 66.751 -105.8276
669.743546 66.863 -173.2886
674.596784 68.533 139.2195
679.485191 71.143 104.2383
684.409020 73.038 66.4304
689.368530 73.471 25.8149
694.363979 72.308 -10.3789
699.395626 69.993 -34.4587
704.463736 67.472 -53.1411
709.568570 65.468 -74.1143
714.710396 64.510 -112.1733
719.889483 64.692 119.1365
725.106099 65.758 36.1162
730.360516 66.812 -11.7705
735.653010 67.199 -58.1230
740.983855 66.648 -105.4922
746.353329 65.844 -148.2417
751.761713 65.904 170.7129
757.209288 66.353 131.1172
762.696339 66.607 99.0732
768.223151 67.262 84.2524
773.790013 68.456 67.9805
779.397214 68.826 39.2612
785.045047 68.225 11.4849
790.733808 67.248 -7.3994
796.463791 66.744 48.1309
802.235296 67.391 41.1553
808.048623 68.506 21.4497
813.904077 69.554 -0.2031
819.801961 69.518 -31.1929
825.742584 67.857 -57.7744
831.726255 65.243 -66.1538
837.753287 63.129 -81.8955
843.823992 61.759 -119.0532
849.938689 61.285 -176.1455
856.097695 62.725 145.0425
862.301332 65.195 130.8335
868.549922 66.981 98.0469
874.843793 67.754 68.0210
881.183272 68.271 49.9648
887.568689 69.153 35.8545
894.000378 69.836 17.0591
900.478673 69.812 -2.1699
907.003913 69.414 -17.3359
913.576437 69.114 -34.0732
920.196588 68.890 -55.7046
926.864712 68.430 -88.0234
933.581156 67.386 -137.7666
940.346270 66.327 141.8374
947.160407 66.613 80.7964
954.023921 67.435 43.8804
960.937172 67.778 18.5435
967.900519 67.910 1.9653
974.914325 68.078 -11.9053
981.978956 68.006 -28.0820
989.094780 67.262 -45.5229
996.262169 65.775 -62.4023
1003.481495 64.474 -56.3169
1010.753136 65.435 6.4111
1018.077470 67.229 -6.1328
1025.454879 68.138 -28.3970
1032.885748 68.369 -46.5576
1040.370463 68.404 -63.6958
1047.909417 67.852 -86.5454
1055.503000 66.113 -100.8887
1063.151610 63.974 -83.3555
1070.855645 63.257 -84.2290
1078.615506 63.855 -108.2695
1086.431599 64.198 -159.1650
1094.304330 64.392 70.6694
1102.234110 65.696 22.9961
1110.221353 67.309 -9.1294
1118.266475 68.393 -40.0317
1126.369895 68.452 -73.0610
1134.532035 67.258 -106.6675
1142.753322 65.400 -139.8193
1151.034184 63.729 -54.3481
1159.375052 62.726 -44.7944
1167.776361 62.611 -29.5620
1176.238550 64.324 -27.3447
1184.762060 66.769 -22.9531
1193.347334 67.835 -50.1724
1201.994821 66.664 -83.6118
1210.704971 63.804 -88.4438
1219.478238 61.251 -79.7695
1228.315080 60.637 -62.6045
1237.215957 61.284 -50.8921
1246.181334 61.393 -76.2539
1255.211678 60.398 -84.6226
1264.307459 59.701 -28.0269
1273.469152 60.502 -14.9487
1282.697235 62.030 -10.3872
1291.992188 63.295 -23.3530
1301.354495 64.393 -34.4146
1310.784647 65.223 -48.7925
1320.283132 65.915 -54.8774
1329.850448 67.018 -60.1553
1339.487093 67.492 -82.8926
1349.193569 66.658 -108.0903
1358.970381 64.753 -113.2661
1368.818041 63.126 -85.7910
1378.737061 63.407 -85.1211
1388.727958 64.683 -99.4219
1398.791253 65.364 -122.8926
1408.927471 65.441 -87.0190
1419.137140 65.590 -71.7793
1429.420793 65.772 -92.3091
1439.778965 65.206 -116.2373
1450.212197 63.697 -129.0288
1460.721033 62.180 -137.2969
1471.306019 60.998 -153.7900
1481.967709 61.561 -114.3652
1492.706658 63.911 -57.2012
1503.523426 65.572 -84.3364
1514.418576 65.928 -114.2153
1525.392678 65.032 -138.1929
1536.446302 63.772 -141.8389
1547.580025 62.956 -151.8916
1558.794428 62.481 -116.6416
1570.090095 62.507 -89.7710
1581.467615 61.963 -107.0938
1592.927581 61.007 -114.1680
1604.470591 61.270 -109.1899
1616.097246 62.905 -105.5278
1627.808153 64.603 -116.2632
1639.603922 65.789 -129.0928
1651.485168 66.641 -140.3428
1663.452510 67.039 -158.7002
1675.506573 66.822 -178.7344
1687.647984 66.269 160.6299
1699.877377 65.045 135.4268
1712.195390 62.900 121.4316
1724.602663 61.314 174.2754
1737.099845 62.124 -165.4741
1749.687587 63.541 179.0913
1762.366544 63.945 155.3594
1775.137379 63.595 128.9395
1788.000756 62.726 99.8677
1800.957346 61.452 158.8633
1814.007826 61.103 144.1548
1827.152874 61.806 94.9424
1840.393177 63.553 26.0547
1853.729425 65.940 -44.1138
1867.162312 68.166 -96.7900
1880.692540 69.594 -141.9692
1894.320813 69.762 175.7148
1908.047843 68.711 138.5342
1921.874344 67.011 106.6089
1935.801038 65.193 85.8462
1949.828650 64.171 106.0757
1963.957912 64.362 86.3848
1978.189561 64.366 56.5552
1992.524338 64.052 1.7358
2006.962991 64.117 -107.2881
2021.506272 65.283 -158.3374
2036.154940 66.571 151.3359
2050.909758 66.460 94.7051
2065.771495 64.954 39.8037
2080.740927 62.931 -7.0684
2095.818833 62.481 -25.1235
2111.006001 64.706 -40.6597
2126.303220 67.563 -70.0474
2141.711290 69.484 -107.2095
2157.231013 69.744 -144.6641
2172.863198 68.762 -167.9912
2188.608660 67.870 176.5688
2204.468221 67.585 160.6992
2220.442706 67.175 138.1875
2236.532950 65.723 128.8433
2252.739789 64.089 133.6787
2269.064070 63.505 130.3579
2285.506644 63.975 116.9419
2302.068367 64.169 92.6284
2318.750104 63.822 57.4839
2335.552723 63.921 -32.5688
2352.477101 64.665 -125.7339
2369.524119 65.100 -164.5273
2386.694668 65.271 173.1191
2403.989641 65.438 154.5732
2421.409941 65.504 137.0508
2438.956476 65.370 124.9780
2456.630160 65.531 129.4297
2474.431915 65.992 127.3276
2492.362668 66.067 114.0991
2510.423356 65.894 101.6396
2528.614918 65.721 96.6011
2546.938304 65.593 114.6689
2565.394469 66.007 114.7954
2583.984375 66.486 96.3208
2602.708991 65.977 71.4531
2621.569293 64.520 53.2930
2640.566265 63.673 31.2959
2659.700897 64.223 175.6812
2678.974186 65.490 142.0820
2698.387137 66.347 114.1455
2717.940763 66.094 90.3643
2737.636082 64.769 67.9028
2757.474121 63.578 57.0400
2777.455915 64.462 135.6035
2797.582506 66.217 118.8345
2817.854942 66.797 87.0376
2838.274281 65.849 59.7471
2858.841586 64.208 45.9834
2879.557931 62.947 68.7598
2900.424394 62.583 83.6899
2921.442065 62.329 73.0107
2942.612039 61.946 57.9209
2963.935418 61.748 46.4512
2985.413316 62.540 74.0581
3007.046852 63.695 84.2290
3028.837153 63.528 58.0981
3050.785356 62.458 63.3184
3072.892604 62.328 96.3809
3095.160050 62.510 93.3350
3117.588856 62.100 84.7734
3140.180190 61.800 70.6221
3162.935230 61.840 57.9800
3185.855163 61.822 68.7773
3208.941182 61.804 62.3696
3232.194493 61.496 36.3398
3255.616307 61.145 86.2021
3279.207844 61.546 114.5747
3302.970336 62.128 104.0361
3326.905021 62.964 99.3081
3351.013146 63.398 78.9370
3375.295969 62.933 65.2256
3399.754755 62.391 68.4717
3424.390779 62.078 54.8545
3449.205326 61.015 35.7080
3474.199690 59.616 26.8843
3499.375173 58.869 81.3652
3524.733088 58.492 87.7388
3550.274757 58.585 79.7290
3576.001511 59.834 96.8638
3601.914692 61.292 95.3818
3628.015651 61.937 95.1577
3654.305748 61.861 80.7236
3680.786354 61.204 64.8296
3707.458849 60.568 59.0786
3734.324624 60.236 85.3574
3761.385080 60.269 85.9937
3788.641627 60.371 105.0488
3816.095686 60.920 134.2061
3843.748688 61.390 125.3032
3871.602076 62.243 125.7417
3899.657300 63.210 115.4438
3927.915825 63.344 100.4307
3956.379122 62.834 90.8457
3985.048676 62.422 84.7959
4013.925981 62.730 89.8511
4043.012544 63.713 95.6997
4072.309879 64.048 87.8989
4101.819515 63.595 88.0298
4131.542990 62.682 84.3076
4161.481854 62.160 85.3013
4191.637667 62.631 87.0508
4222.012001 63.579 85.4263
4252.606441 64.179 77.3188
4283.422580 64.107 69.5215
4314.462026 64.044 69.2510
4345.726396 64.184 68.0400
4377.217321 64.396 64.7139
4408.936442 64.702 62.8477
4440.885413 65.077 61.4922
4473.065899 64.765 50.8589
4505.479579 63.877 47.7754
4538.128141 63.111 45.0137
4571.013288 62.700 45.0825
4604.136735 62.804 44.4209
4637.500207 62.753 38.2681
4671.105446 62.747 36.8677
4704.954201 62.745 28.0122
4739.048239 62.291 25.7729
4773.389336 62.308 39.8467
4807.979283 62.415 34.1255
4842.819883 61.949 28.3809
4877.912952 61.231 27.9951
4913.260320 60.656 24.5161
4948.863830 59.763 18.9810
4984.725337 58.698 26.4668
5020.846712 58.758 36.1997
5057.229836 59.339 53.7607
5093.876609 59.564 51.2007
5130.788938 59.561 49.4414
5167.968750 59.815 50.5444
5205.417982 60.147 46.5371
5243.138586 60.350 38.5400
5281.132530 60.298 110.0332
5319.401793 60.371 98.2490
5357.948371 60.803 88.8984
5396.774274 61.614 82.8105
5435.881525 62.161 71.9912
5475.272163 62.180 59.5498
5514.948243 61.850 58.9287
5554.911831 62.425 77.5703
5595.165012 63.586 71.4321
5635.709884 64.062 60.0889
5676.548561 64.296 55.3745
5717.683172 64.550 45.8555
5759.115861 64.294 34.7471
5800.848789 63.665 29.4272
5842.884130 63.145 33.7998
5885.224077 63.348 33.8149
5927.870837 63.714 25.0010
5970.826633 63.846 14.6362
6014.093704 63.522 -0.0664
6057.674306 62.297 -12.0049
6101.570711 61.060 2.8506
6145.785208 60.743 6.4419
6190.320101 60.773 1.1958
6235.177712 61.202 -1.3276
6280.360380 61.403 -19.2617
6325.870460 60.636 -40.3882
6371.710325 58.988 -48.6567
6417.882365 57.516 -57.4297
6464.388986 57.410 95.0098
6511.232613 57.647 82.7876
6558.415689 58.098 99.6191
6605.940673 59.470 120.9883
6653.810042 60.970 103.6406
6702.026292 61.844 86.6138
6750.591937 62.444 80.5264
6799.509509 62.920 70.5791
6848.781558 63.134 57.0156
6898.410653 62.993 43.0835
6948.399380 62.603 32.1089
6998.750346 62.299 33.1768
7049.466176 62.011 35.2168
7100.549514 61.416 27.6934
7152.003023 60.656 19.4238
7203.829385 59.777 13.8496
7256.031302 59.396 21.0718
7308.611496 60.181 43.6689
7361.572708 60.746 32.1606
7414.917698 60.199 22.5435
7468.649249 59.616 23.7920
7522.770160 59.591 32.2651
7577.283253 59.738 43.7988
7632.191371 59.289 31.9482
7687.497376 58.607 25.4717
7743.204151 58.740 28.4814
7799.314600 60.026 86.0098
7855.831649 61.289 87.1147
7912.758244 61.356 73.0220
7970.097352 60.805 71.1147
8027.851962 60.698 70.0415
8086.025087 61.471 71.5571
8144.619758 62.391 65.1143
8203.639030 62.965 58.2280
8263.085980 63.381 53.1738
8322.963708 63.689 50.4189
8383.275334 64.152 47.2988
8444.024002 64.664 41.7461
8505.212881 65.334 39.6831
8566.845160 65.586 27.0625
8628.924051 64.937 15.3447
8691.452792 64.114 11.8022
8754.434642 63.836 12.5552
8817.872884 63.704 4.5210
8881.770826 62.901 -2.6318
8946.131799 61.797 -0.3306
9010.959157 61.453 12.3247
9076.256282 61.868 13.8447
9142.026576 61.826 2.6670
9208.273470 61.157 -2.7183
9275.000415 60.634 6.8677
9342.210891 60.831 12.5146
9409.908403 60.982 8.1968
9478.096478 60.896 8.4609
9546.778672 61.153 23.3965
9615.958566 62.014 23.7578
9685.639765 62.583 12.0933
9755.825904 62.577 2.4624
9826.520640 62.352 3.0015
9897.727659 62.401 -1.0464
9969.450674 62.094 -11.9902
10041.693423 61.325 -13.2163
10114.459673 60.983 -11.7583
10187.753217 60.986 -17.7397
10261.577877 60.887 -27.6313
10335.937500 60.082 -43.5796
10410.835964 58.675 -50.3018
10486.277173 57.509 -47.9033
10562.265060 56.692 -45.6953
10638.803587 56.515 -35.9263
10715.896743 57.604 77.9009
10793.548548 58.414 53.4746
10871.763050 58.388 39.8760
10950.544327 58.628 46.1787
11029.896485 59.468 39.9209
11109.823662 59.904 27.1704
11190.330024 60.175 22.5635
11271.419768 60.530 19.1543
11353.097122 60.376 7.0088
11435.366344 59.346 -2.1953
11518.231722 58.236 -1.7476
11601.697577 57.533 -1.2886
11685.768261 57.016 0.8691
11770.448155 56.855 8.4609
11855.741674 57.322 19.5596
11941.653265 57.882 16.5879
12028.187408 57.752 9.7153
12115.348612 57.554 10.7671
12203.141422 57.626 9.0918
12291.570415 57.464 2.2944
12380.640201 56.962 6.3335
12470.355424 56.763 17.0254
12560.720760 57.031 26.6865
12651.740920 58.514 37.7031
12743.420650 60.221 29.8076
12835.764729 61.010 14.7021
12928.777972 60.958 4.6274
13022.465227 60.667 -2.8950
13116.831378 59.908 -13.5742
13211.881345 58.511 -15.8950
13307.620084 57.429 -7.7310
13404.052584 57.392 0.2417
13501.183875 58.145 6.7202
13599.019019 58.932 4.1260
13697.563116 59.299 -3.9077
13796.821305 59.475 -10.6323
13896.798760 59.560 -18.7632
13997.500692 59.056 -30.1396
14098.932352 57.840 -37.0688
14201.099028 56.528 -40.8882
14304.006046 55.074 -41.9507
14407.658770 54.035 -26.6040
14512.062604 54.139 -18.0103
14617.222992 54.483 -21.0234
14723.145416 54.751 -26.7124
14829.835397 54.455 -37.7700
14937.298497 53.233 -45.4478
15045.540320 51.709 -39.7627
15154.566507 50.928 -31.1890
15264.382743 51.182 -25.1602
15374.994752 51.574 -31.0576
15486.408302 51.048 -42.0532
15598.629201 49.813 -45.8540
15711.663298 48.647 -46.7803
15825.516487 47.936 -24.3921
15940.194703 48.144 -6.9351
16055.703925 48.894 -5.3584
16172.050174 49.832 -11.6533
16289.239516 49.889 -28.9009
16407.278061 48.959 -44.5742
16526.171961 47.927 -63.6890
16645.927415 47.069 -100.8032
16766.550667 46.855 133.0771
16888.048005 47.995 95.9473
17010.425762 49.172 73.1636
17133.690320 49.887 60.6328
17257.848103 50.573 52.7656
17382.905584 51.349 47.7319
17508.869284 52.371 44.5000
17635.745768 52.989 34.5967
17763.541652 53.010 24.2910
17892.263597 52.565 13.8433
18021.918315 51.592 9.0918
18152.512564 50.697 14.1182
18284.053153 50.577 20.9585
18416.546939 50.961 24.3521
18550.000830 51.563 24.5791
18684.421783 52.244 18.9790
18819.816805 52.536 9.1689
18956.192956 52.283 -1.8638
19093.557344 51.378 -13.4907
19231.917131 49.852 -22.0376
19371.279531 47.931 -26.4116
19511.651807 45.850 -25.3755
19653.041280 43.929 -19.7637
19795.455318 42.510 -3.6167
19938.901348 41.885 8.2637
