* Measurement data measured by REW V5.31.3
* Source: Scarlett 2i4 USB, MICROPHONE, L, volume: no control. Timing signal peak level -16.6 dBFS, measurement signal peak level -12.5 dBFS
* Format: 512k Log Swept Sine, 1 sweep at -18.0 dBFS using an acoustic timing reference
* Dated: Aug 8, 2024 4:30:21 PM
* REW Settings:
*  C-weighting compensation: Off
*  Target level: 75.0 dB
* Note: ; Delay -1.8235 ms (-625 mm, -(2 ft 0.62 in)) using IR start time relative to Acoustic reference played from SPEAKER L with no timing offset Clock adjustment: 3.2 ppm
* Measurement: SFR screens-p1-1
* Smoothing: None
* Frequency Step: 0.3364563 Hz
* Start Frequency: 10.093689 Hz
*
* Freq(Hz) SPL(dB) Phase(degrees)
10.093689 75.934 -38.8433
10.430145 76.801 -48.0412
10.766602 77.552 -56.7840
11.103058 78.205 -64.8162
11.439514 78.801 -71.9480
11.775970 79.403 -78.1671
12.112427 80.074 -83.7227
12.448883 80.844 -89.0916
12.785339 81.699 -94.7917
13.121796 82.581 -101.1623
13.458252 83.421 -108.2647
13.794708 84.161 -115.9247
14.131165 84.768 -123.8282
14.467621 85.234 -131.6100
14.804077 85.579 -138.9277
15.140533 85.846 -145.5420
15.476990 86.094 -151.4050
15.813446 86.375 -156.7116
16.149902 86.710 -161.8335
16.486359 87.076 -167.1262
16.822815 87.420 -172.7312
17.159271 87.689 -178.5058
17.495728 87.858 175.9055
17.832184 87.945 170.9187
18.168640 88.012 166.8106
18.505096 88.141 163.5174
18.841553 88.393 160.5793
19.178009 88.762 157.3755
19.514465 89.183 153.5065
19.850922 89.575 148.9810
20.187378 89.886 144.1156
20.523834 90.108 139.3176
20.860291 90.274 134.8867
21.196747 90.432 130.8948
21.533203 90.620 127.1865
21.869659 90.844 123.5159
22.206116 91.084 119.7235
22.542572 91.314 115.8156
22.879028 91.524 111.9080
23.215485 91.720 108.1083
23.551941 91.917 104.4400
23.888397 92.124 100.8582
24.224854 92.341 97.3320
24.561310 92.570 93.8973
24.897766 92.828 90.6053
25.234222 93.150 87.3836
25.570679 93.564 83.9339
25.907135 94.064 79.8077
26.243591 94.594 74.6407
26.580048 95.075 68.3453
26.916504 95.436 61.1243
27.252960 95.635 53.3593
27.589417 95.664 45.4756
27.925873 95.544 37.8248
28.262329 95.317 30.5904
28.598785 95.019 23.7443
28.935242 94.665 17.1077
29.271698 94.228 10.5281
29.608154 93.656 4.0862
29.944611 92.898 -1.7767
30.281067 91.953 -6.2610
30.617523 90.918 -8.4192
30.953979 90.027 -7.8180
31.290436 89.549 -5.5293
31.626892 89.523 -3.8576
31.963348 89.702 -4.2606
32.299805 89.819 -6.4039
32.636261 89.766 -9.0284
32.972717 89.611 -10.9508
33.309174 89.539 -11.8124
33.645630 89.716 -12.4909
33.982086 90.130 -14.4823
34.318542 90.601 -18.6415
34.654999 90.937 -24.7855
34.991455 91.024 -32.1598
35.327911 90.827 -39.8931
35.664368 90.369 -47.2080
36.000824 89.720 -53.5277
36.337280 88.975 -58.5834
36.673737 88.225 -62.4807
37.010193 87.520 -65.5840
37.346649 86.859 -68.2074
37.683105 86.219 -70.3691
38.019562 85.614 -71.8632
38.356018 85.112 -72.6133
38.692474 84.791 -73.0132
39.028931 84.671 -73.8494
39.365387 84.679 -75.7853
39.701843 84.707 -78.9766
40.038300 84.682 -83.1630
40.374756 84.583 -87.9869
40.711212 84.428 -93.2516
41.047668 84.245 -99.0178
41.384125 84.037 -105.5352
41.720581 83.780 -113.0724
42.057037 83.426 -121.7748
42.393494 82.927 -131.6270
42.729950 82.250 -142.4989
43.066406 81.384 -154.2113
43.402863 80.340 -166.5796
43.739319 79.157 -179.4291
44.075775 77.901 167.4167
44.412231 76.662 154.1654
44.748688 75.551 141.0833
45.085144 74.672 128.4888
45.421600 74.087 116.6891
45.758057 73.796 105.9041
46.094513 73.740 96.2490
46.430969 73.836 87.7911
46.767426 74.011 80.6008
47.103882 74.227 74.7382
47.440338 74.482 70.1841
47.776794 74.795 66.7766
48.113251 75.180 64.2283
48.449707 75.637 62.2386
48.786163 76.152 60.6094
49.122620 76.717 59.2656
49.459076 77.340 58.1707
49.795532 78.040 57.2238
50.131989 78.833 56.2213
50.468445 79.723 54.8945
50.804901 80.700 52.9694
51.141357 81.739 50.2020
51.477814 82.805 46.3948
51.814270 83.851 41.4237
52.150726 84.825 35.2705
52.487183 85.677 28.0370
52.823639 86.362 19.9319
53.160095 86.850 11.2410
53.496552 87.124 2.2949
53.833008 87.182 -6.5563
54.169464 87.041 -14.9713
54.505920 86.732 -22.6537
54.842377 86.304 -29.4067
55.178833 85.811 -35.1894
55.515289 85.299 -40.1345
55.851746 84.790 -44.4780
56.188202 84.278 -48.4140
56.524658 83.740 -51.9710
56.861115 83.165 -55.0012
57.197571 82.573 -57.2963
57.534027 82.011 -58.7725
57.870483 81.532 -59.6112
58.206940 81.155 -60.2134
58.543396 80.854 -60.9521
58.879852 80.572 -61.9315
59.216309 80.267 -62.9580
59.552765 79.938 -63.7085
59.889221 79.622 -63.9657
60.225677 79.377 -63.7945
60.562134 79.236 -63.5372
60.898590 79.186 -63.6000
61.235046 79.178 -64.2053
61.571503 79.161 -65.3112
61.907959 79.106 -66.7076
62.244415 79.012 -68.1636
62.580872 78.897 -69.5347
62.917328 78.783 -70.7986
63.253784 78.687 -72.0273
63.590240 78.612 -73.3204
63.926697 78.551 -74.7486
64.263153 78.494 -76.3299
64.599609 78.434 -78.0387
64.936066 78.369 -79.8294
65.272522 78.302 -81.6619
65.608978 78.241 -83.5216
65.945435 78.193 -85.4341
66.281891 78.164 -87.4652
66.618347 78.152 -89.7016
66.954803 78.146 -92.2172
67.291260 78.133 -95.0404
67.627716 78.098 -98.1439
67.964172 78.034 -101.4639
68.300629 77.941 -104.9374
68.637085 77.825 -108.5408
68.973541 77.690 -112.3030
69.309998 77.533 -116.2838
69.646454 77.342 -120.5188
69.982910 77.098 -124.9639
70.319366 76.785 -129.4666
70.655823 76.405 -133.7828
70.992279 75.985 -137.6492
71.328735 75.584 -140.9097
71.665192 75.278 -143.6707
72.001648 75.124 -146.3715
72.338104 75.130 -149.6392
72.674561 75.242 -153.9823
73.011017 75.376 -159.5743
73.347473 75.454 -166.2573
73.683929 75.427 -173.6619
74.020386 75.276 178.6782
74.356842 75.011 171.2551
74.693298 74.676 164.5244
75.029755 74.345 158.8103
75.366211 74.118 154.1591
75.702667 74.084 150.2238
76.039124 74.284 146.3499
76.375580 74.685 141.9005
76.712036 75.209 136.5552
77.048492 75.780 130.3444
77.384949 76.351 123.4883
77.721405 76.903 116.2153
78.057861 77.437 108.6543
78.394318 77.951 100.8113
78.730774 78.437 92.6196
79.067230 78.867 84.0260
79.403687 79.207 75.0627
79.740143 79.423 65.8752
80.076599 79.495 56.7046
80.413055 79.422 47.8374
80.749512 79.230 39.5254
81.085968 78.966 31.8777
81.422424 78.683 24.7535
81.758881 78.414 17.7382
82.095337 78.142 10.2800
82.431793 77.795 1.9233
82.768250 77.270 -7.5444
83.104706 76.453 -18.1105
83.441162 75.225 -29.6639
83.777618 73.440 -42.1788
84.114075 70.876 -56.0533
84.450531 67.092 -73.2794
84.786987 61.212 -104.4030
85.123444 58.398 174.6465
85.459900 64.267 128.8641
85.796356 68.255 111.6328
86.132812 70.922 100.9417
86.469269 72.885 92.5104
86.805725 74.406 85.0513
87.142181 75.605 78.1366
87.478638 76.550 71.6917
87.815094 77.298 65.7721
88.151550 77.904 60.4280
88.488007 78.421 55.6279
88.824463 78.889 51.2437
89.160919 79.334 47.0884
89.497375 79.761 42.9777
89.833832 80.166 38.7734
90.170288 80.537 34.3912
90.506744 80.857 29.7925
90.843201 81.111 24.9805
91.179657 81.277 20.0128
91.516113 81.338 15.0170
91.852570 81.283 10.1952
92.189026 81.115 5.8069
92.525482 80.856 2.1199
92.861938 80.549 -0.6659
93.198395 80.252 -2.5092
93.534851 80.020 -3.5760
93.871307 79.883 -4.1831
94.207764 79.839 -4.6447
94.544220 79.869 -5.1431
94.880676 79.955 -5.7203
95.217133 80.093 -6.3726
95.553589 80.289 -7.1486
95.890045 80.548 -8.1752
96.226501 80.858 -9.6060
96.562958 81.200 -11.5471
96.899414 81.548 -14.0265
97.235870 81.883 -17.0117
97.572327 82.193 -20.4510
97.908783 82.468 -24.3016
98.245239 82.701 -28.5345
98.581696 82.884 -33.1228
98.918152 83.006 -38.0289
99.254608 83.058 -43.2008
99.591064 83.032 -48.5740
99.927521 82.922 -54.0778
100.263977 82.721 -59.6337
100.600433 82.425 -65.1478
100.936890 82.029 -70.5009
101.273346 81.537 -75.5425
101.609802 80.958 -80.1052
101.946259 80.319 -84.0411
102.282715 79.657 -87.2837
102.619171 79.012 -89.9086
102.955627 78.415 -92.1421
103.292084 77.868 -94.2823
103.628540 77.350 -96.5629
103.964996 76.821 -99.0542
104.301453 76.251 -101.6641
104.637909 75.628 -104.2153
104.974365 74.958 -106.5435
105.310822 74.260 -108.5690
105.647278 73.551 -110.3116
105.983734 72.839 -111.8439
106.320190 72.121 -113.2238
106.656647 71.392 -114.4591
106.993103 70.652 -115.5315
107.329559 69.907 -116.4545
107.666016 69.161 -117.3090
108.002472 68.411 -118.2242
108.338928 67.636 -119.3225
108.675385 66.812 -120.6857
109.011841 65.909 -122.3756
109.348297 64.892 -124.4808
109.684753 63.708 -127.1327
110.021210 62.267 -130.4574
110.357666 60.437 -134.5013
110.694122 58.023 -139.2087
111.030579 54.714 -144.5895
111.367035 49.884 -151.7283
111.703491 41.722 -171.9242
112.039948 39.492 90.3588
112.376404 47.215 68.9714
112.712860 51.901 68.4579
113.049316 55.512 68.9807
113.385773 58.437 67.8202
113.722229 60.774 65.2278
114.058685 62.620 61.9956
114.395142 64.097 58.7374
114.731598 65.323 55.7065
115.068054 66.391 52.8142
115.404510 67.341 49.8038
115.740967 68.170 46.4989
116.077423 68.853 42.9578
116.413879 69.380 39.4561
116.750336 69.777 36.3342
117.086792 70.104 33.7843
117.423248 70.431 31.6759
117.759705 70.792 29.5698
118.096161 71.158 26.9906
118.432617 71.448 23.7600
118.769073 71.577 20.1312
119.105530 71.496 16.7109
119.441986 71.215 14.2933
119.778442 70.824 13.6136
120.114899 70.490 14.9323
120.451355 70.382 17.6102
120.787811 70.544 20.3423
121.124268 70.860 22.1581
121.460724 71.176 23.0273
121.797180 71.406 23.5669
122.133636 71.563 24.4751
122.470093 71.730 26.1100
122.806549 71.998 28.3038
123.143005 72.409 30.5151
123.479462 72.940 32.2266
123.815918 73.532 33.2139
124.152374 74.141 33.4993
124.488831 74.743 33.1705
124.825287 75.322 32.2812
125.161743 75.861 30.8690
125.498199 76.340 29.0208
125.834656 76.743 26.9020
126.171112 77.068 24.7262
126.507568 77.331 22.6860
126.844025 77.561 20.8818
127.180481 77.785 19.2909
127.516937 78.023 17.7985
127.853394 78.274 16.2751
128.189850 78.529 14.6490
128.526306 78.777 12.9258
128.862762 79.014 11.1531
129.199219 79.245 9.3691
129.535675 79.477 7.5675
129.872131 79.716 5.6967
130.208588 79.959 3.6870
130.545044 80.200 1.4802
130.881500 80.428 -0.9545
131.217957 80.631 -3.6218
131.554413 80.799 -6.5062
131.890869 80.922 -9.5741
132.227325 80.989 -12.7728
132.563782 80.993 -16.0295
132.900238 80.931 -19.2570
133.236694 80.804 -22.3667
133.573151 80.615 -25.2814
133.909607 80.370 -27.9385
134.246063 80.072 -30.2804
134.582520 79.726 -32.2330
134.918976 79.338 -33.6875
135.255432 78.924 -34.5096
135.591888 78.517 -34.5912
135.928345 78.163 -33.9393
136.264801 77.907 -32.7556
136.601257 77.771 -31.4131
136.937714 77.736 -30.3002
137.274170 77.755 -29.6312
137.610626 77.774 -29.3698
137.947083 77.762 -29.2930
138.283539 77.718 -29.1316
138.619995 77.668 -28.7147
138.956451 77.644 -28.0580
139.292908 77.665 -27.3392
139.629364 77.714 -26.7493
139.965820 77.758 -26.3130
140.302277 77.766 -25.8127
140.638733 77.746 -24.8729
140.975189 77.757 -23.1896
141.311646 77.896 -20.8348
141.648102 78.238 -18.4115
141.984558 78.770 -16.7714
142.321014 79.396 -16.4736
142.657471 79.998 -17.5259
142.993927 80.496 -19.5343
143.330383 80.864 -21.9731
143.666840 81.121 -24.3922
144.003296 81.314 -26.5493
144.339752 81.494 -28.4637
144.676208 81.690 -30.3567
145.012665 81.893 -32.4824
145.349121 82.069 -34.9535
145.685577 82.182 -37.6752
146.022034 82.213 -40.4025
146.358490 82.175 -42.8612
146.694946 82.101 -44.8761
147.031403 82.038 -46.4615
147.367859 82.018 -47.8212
147.704315 82.045 -49.2384
148.040771 82.095 -50.9250
148.377228 82.135 -52.9366
148.713684 82.135 -55.1904
149.050140 82.082 -57.5387
149.386597 81.976 -59.8394
149.723053 81.825 -61.9897
150.059509 81.639 -63.9255
150.395966 81.429 -65.6094
150.732422 81.209 -67.0281
151.068878 80.992 -68.2075
151.405334 80.787 -69.2271
151.741791 80.592 -70.1962
152.078247 80.390 -71.1885
152.414703 80.158 -72.1628
152.751160 79.876 -72.9268
153.087616 79.549 -73.1770
153.424072 79.220 -72.6296
153.760529 78.963 -71.2156
154.096985 78.855 -69.2391
154.433441 78.927 -67.3099
154.769897 79.141 -66.0165
155.106354 79.422 -65.6260
155.442810 79.699 -66.0592
155.779266 79.934 -67.0640
156.115723 80.120 -68.3937
156.452179 80.267 -69.9069
156.788635 80.386 -71.5760
157.125092 80.480 -73.4358
157.461548 80.538 -75.5120
157.798004 80.548 -77.7794
158.134460 80.498 -80.1603
158.470917 80.381 -82.5497
158.807373 80.197 -84.8412
159.143829 79.947 -86.9324
159.480286 79.634 -88.7111
159.816742 79.267 -90.0374
160.153198 78.861 -90.7489
160.489655 78.451 -90.7073
160.826111 78.086 -89.8844
161.162567 77.819 -88.4429
161.499023 77.682 -86.7305
161.835480 77.676 -85.1539
162.171936 77.769 -84.0248
162.508392 77.921 -83.4935
162.844849 78.095 -83.5894
163.181305 78.260 -84.2831
163.517761 78.386 -85.5093
163.854218 78.445 -87.1439
164.190674 78.416 -88.9813
164.527130 78.291 -90.7397
164.863586 78.084 -92.1130
165.200043 77.835 -92.8685
165.536499 77.601 -92.9595
165.872955 77.433 -92.5835
166.209412 77.350 -92.1005
166.545868 77.333 -91.8350
166.882324 77.339 -91.9167
167.218781 77.334 -92.2754
167.555237 77.302 -92.7505
167.891693 77.246 -93.2095
168.228149 77.178 -93.6001
168.564606 77.101 -93.9246
168.901062 77.015 -94.1732
169.237518 76.921 -94.2875
169.573975 76.827 -94.1906
169.910431 76.755 -93.8645
170.246887 76.729 -93.4087
170.583344 76.753 -93.0142
170.919800 76.814 -92.8585
171.256256 76.884 -93.0063
171.592712 76.939 -93.3945
171.929169 76.968 -93.8992
172.265625 76.977 -94.4202
172.602081 76.971 -94.9222
172.938538 76.953 -95.4092
173.274994 76.917 -95.8585
173.611450 76.863 -96.1786
173.947906 76.798 -96.2373
174.284363 76.754 -95.9564
174.620819 76.768 -95.4139
174.957275 76.863 -94.8635
175.293732 77.033 -94.6210
175.630188 77.243 -94.8944
175.966644 77.450 -95.6979
176.303101 77.624 -96.8911
176.639557 77.758 -98.2917
176.976013 77.863 -99.7786
177.312469 77.952 -101.3375
177.648926 78.029 -103.0360
177.985382 78.087 -104.9445
178.321838 78.105 -107.0618
178.658295 78.064 -109.2866
178.994751 77.959 -111.4434
179.331207 77.798 -113.3453
179.667664 77.605 -114.8651
180.004120 77.412 -115.9866
180.340576 77.244 -116.8113
180.677032 77.111 -117.5032
181.013489 77.004 -118.2028
181.349945 76.909 -118.9639
181.686401 76.811 -119.7509
182.022858 76.710 -120.4884
182.359314 76.615 -121.1284
182.695770 76.541 -121.6969
183.032227 76.497 -122.2947
183.368683 76.480 -123.0542
183.705139 76.477 -124.0831
184.041595 76.468 -125.4280
184.378052 76.434 -127.0737
184.714508 76.359 -128.9651
185.050964 76.232 -131.0250
185.387421 76.045 -133.1604
185.723877 75.794 -135.2607
186.060333 75.482 -137.2015
186.396790 75.119 -138.8668
186.733246 74.725 -140.1930
187.069702 74.322 -141.2091
187.406158 73.919 -142.0323
187.742615 73.509 -142.7959
188.079071 73.062 -143.5320
188.415527 72.549 -144.0892
188.751984 71.959 -144.1377
189.088440 71.317 -143.2849
189.424896 70.695 -141.2861
189.761353 70.180 -138.2628
190.097809 69.826 -134.7107
190.434265 69.616 -131.1632
190.770721 69.493 -127.8087
191.107178 69.423 -124.4673
191.443634 69.426 -120.9163
191.780090 69.554 -117.2415
192.116547 69.833 -113.8879
192.453003 70.223 -111.3257
192.789459 70.645 -109.6906
193.125916 71.037 -108.7484
193.462372 71.381 -108.1189
193.798828 71.701 -107.5271
194.135284 72.038 -106.9417
194.471741 72.411 -106.5380
194.808197 72.812 -106.5264
195.144653 73.207 -106.9827
195.481110 73.568 -107.8087
195.817566 73.882 -108.8065
196.154022 74.160 -109.7914
196.490479 74.426 -110.6736
196.826935 74.704 -111.4825
197.163391 75.011 -112.3317
197.499847 75.346 -113.3573
197.836304 75.702 -114.6666
198.172760 76.063 -116.3141
198.509216 76.413 -118.3022
198.845673 76.741 -120.5896
199.182129 77.039 -123.1024
199.518585 77.305 -125.7561
199.855042 77.545 -128.4821
200.191498 77.772 -131.2556
200.527954 77.996 -134.1062
200.864410 78.220 -137.1019
201.200867 78.440 -140.3119
201.537323 78.648 -143.7675
201.873779 78.831 -147.4492
202.210236 78.985 -151.3008
202.546692 79.110 -155.2579
202.883148 79.211 -159.2798
203.219604 79.296 -163.3579
203.556061 79.368 -167.5092
203.892517 79.429 -171.7545
204.228973 79.476 -176.1021
204.565430 79.507 179.4567
204.901886 79.522 174.9380
205.238342 79.519 170.3549
205.574799 79.501 165.7140
205.911255 79.464 161.0254
206.247711 79.407 156.3121
206.584167 79.328 151.6157
206.920624 79.232 146.9849
207.257080 79.126 142.4521
207.593536 79.021 138.0127
207.929993 78.924 133.6205
208.266449 78.838 129.2079
208.602905 78.755 124.7236
208.939362 78.669 120.1616
209.275818 78.571 115.5638
209.612274 78.463 110.9952
209.948730 78.354 106.5048
210.285187 78.255 102.0920
210.621643 78.175 97.7046
210.958099 78.115 93.2681
211.294556 78.067 88.7313
211.631012 78.019 84.1010
211.967468 77.962 79.4423
212.303925 77.895 74.8513
212.640381 77.827 70.4099
212.976837 77.772 66.1505
213.313293 77.742 62.0435
213.649750 77.744 58.0140
213.986206 77.775 53.9806
214.322662 77.828 49.8887
214.659119 77.891 45.7255
214.995575 77.956 41.5105
215.332031 78.017 37.2773
215.668488 78.071 33.0564
216.004944 78.120 28.8691
216.341400 78.163 24.7306
216.677856 78.199 20.6534
217.014313 78.232 16.6504
217.350769 78.262 12.7284
217.687225 78.295 8.8834
218.023682 78.334 5.0952
218.360138 78.380 1.3302
218.696594 78.433 -2.4491
219.033051 78.489 -6.2747
219.369507 78.545 -10.1661
219.705963 78.596 -14.1305
220.042419 78.637 -18.1675
220.378876 78.667 -22.2751
220.715332 78.681 -26.4524
221.051788 78.676 -30.6982
221.388245 78.648 -35.0073
221.724701 78.594 -39.3654
222.061157 78.509 -43.7484
222.397614 78.392 -48.1250
222.734070 78.243 -52.4628
223.070526 78.065 -56.7368
223.406982 77.860 -60.9363
223.743439 77.635 -65.0679
224.079895 77.390 -69.1528
224.416351 77.125 -73.2219
224.752808 76.840 -77.3032
225.089264 76.528 -81.4160
225.425720 76.184 -85.5642
225.762177 75.803 -89.7378
226.098633 75.381 -93.9163
226.435089 74.917 -98.0791
226.771545 74.411 -102.2178
227.108002 73.867 -106.3499
227.444458 73.286 -110.5317
227.780914 72.662 -114.8601
228.117371 71.983 -119.4597
228.453827 71.223 -124.4548
228.790283 70.347 -129.9390
229.126740 69.311 -135.9597
229.463196 68.067 -142.5344
229.799652 66.573 -149.7090
230.136108 64.787 -157.6875
230.472565 62.680 -167.0872
230.809021 60.259 -179.4434
231.145477 57.724 162.0540
231.481934 55.977 133.8882
231.818390 56.443 101.8711
232.154846 58.528 77.9814
232.491302 60.796 62.6506
232.827759 62.757 52.2656
233.164215 64.378 44.6965
233.500671 65.731 38.9321
233.837128 66.905 34.3875
234.173584 67.968 30.5833
234.510040 68.956 27.0869
234.846497 69.873 23.5828
235.182953 70.702 19.9343
235.519409 71.429 16.1753
235.855865 72.050 12.4363
236.192322 72.579 8.8582
236.528778 73.039 5.5232
236.865234 73.454 2.4270
237.201691 73.844 -0.5056
237.538147 74.213 -3.3757
237.874603 74.558 -6.2576
238.211060 74.872 -9.1736
238.547516 75.145 -12.0952
238.883972 75.376 -14.9631
239.220428 75.566 -17.7117
239.556885 75.722 -20.2847
239.893341 75.854 -22.6482
240.229797 75.973 -24.8005
240.566254 76.091 -26.7695
240.902710 76.212 -28.6079
241.239166 76.340 -30.3757
241.575623 76.474 -32.1211
241.912079 76.608 -33.8713
242.248535 76.742 -35.6404
242.584991 76.874 -37.4421
242.921448 77.004 -39.3042
243.257904 77.128 -41.2627
243.594360 77.239 -43.3435
243.930817 77.325 -45.5413
244.267273 77.379 -47.8142
244.603729 77.397 -50.0977
244.940186 77.379 -52.3274
245.276642 77.331 -54.4634
245.613098 77.256 -56.4885
245.949554 77.155 -58.3943
246.286011 77.028 -60.1553
246.622467 76.876 -61.7178
246.958923 76.705 -63.0161
247.295380 76.527 -64.0093
247.631836 76.359 -64.7114
247.968292 76.212 -65.1936
248.304749 76.086 -65.5415
248.641205 75.974 -65.7983
248.977661 75.868 -65.9370
249.314117 75.769 -65.8840
249.650574 75.691 -65.5837
249.987030 75.653 -65.0608
250.323486 75.672 -64.4309
250.659943 75.749 -63.8538
250.996399 75.873 -63.4578
251.332855 76.026 -63.2979
251.669312 76.196 -63.3704
252.005768 76.374 -63.6550
252.342224 76.556 -64.1428
252.678680 76.737 -64.8357
253.015137 76.907 -65.7197
253.351593 77.059 -66.7478
253.688049 77.190 -67.8469
254.024506 77.307 -68.9517
254.360962 77.420 -70.0388
254.697418 77.537 -71.1423
255.033875 77.661 -72.3337
255.370331 77.785 -73.6748
255.706787 77.897 -75.1763
256.043243 77.986 -76.7881
256.379700 78.048 -78.4216
256.716156 78.090 -79.9934
257.052612 78.124 -81.4683
257.389069 78.164 -82.8735
257.725525 78.216 -84.2866
258.061981 78.278 -85.7954
258.398438 78.341 -87.4553
258.734894 78.391 -89.2722
259.071350 78.420 -91.2097
259.407806 78.423 -93.2119
259.744263 78.401 -95.2295
260.080719 78.356 -97.2346
260.417175 78.292 -99.2192
260.753632 78.210 -101.1877
261.090088 78.109 -103.1436
261.426544 77.988 -105.0825
261.763000 77.845 -106.9932
262.099457 77.680 -108.8584
262.435913 77.494 -110.6619
262.772369 77.288 -112.3916
263.108826 77.064 -114.0422
263.445282 76.824 -115.6174
263.781738 76.569 -117.1311
264.118195 76.297 -118.6021
264.454651 76.002 -120.0405
264.791107 75.678 -121.4321
265.127563 75.316 -122.7229
265.464020 74.913 -123.8232
265.800476 74.474 -124.6345
266.136932 74.011 -125.0867
266.473389 73.537 -125.1689
266.809845 73.059 -124.9241
267.146301 72.573 -124.3835
267.482758 72.062 -123.4834
267.819214 71.522 -122.0171
268.155670 70.972 -119.6831
268.492126 70.472 -116.2563
268.828583 70.110 -111.8230
269.165039 69.949 -106.8733
269.501495 69.989 -102.0532
269.837952 70.170 -97.7551
270.174408 70.432 -93.9792
270.510864 70.757 -90.5469
270.847321 71.158 -87.3962
271.183777 71.652 -84.6958
271.520233 72.223 -82.7175
271.856689 72.825 -81.6177
272.193146 73.408 -81.3318
272.529602 73.943 -81.6458
272.866058 74.425 -82.3264
273.202515 74.867 -83.2288
273.538971 75.285 -84.3252
273.875427 75.686 -85.6624
274.211884 76.063 -87.2837
274.548340 76.406 -89.1792
274.884796 76.707 -91.2795
275.221252 76.966 -93.4983
275.557709 77.191 -95.7766
275.894165 77.390 -98.1035
276.230621 77.567 -100.5029
276.567078 77.721 -102.9988
276.903534 77.846 -105.5823
277.239990 77.939 -108.2090
277.576447 78.002 -110.8245
277.912903 78.042 -113.3936
278.249359 78.067 -115.9216
278.585815 78.080 -118.4448
278.922272 78.081 -120.9993
279.258728 78.063 -123.5928
279.595184 78.022 -126.1980
279.931641 77.958 -128.7732
280.268097 77.879 -131.2961
280.604553 77.790 -133.7898
280.941010 77.696 -136.3137
281.277466 77.589 -138.9309
281.613922 77.460 -141.6677
281.950378 77.296 -144.4934
282.286835 77.093 -147.3372
282.623291 76.854 -150.1296
282.959747 76.588 -152.8462
283.296204 76.308 -155.5305
283.632660 76.013 -158.2764
283.969116 75.693 -161.1750
284.305573 75.330 -164.2595
284.642029 74.901 -167.4775
284.978485 74.393 -170.7036
285.314941 73.804 -173.7874
285.651398 73.145 -176.6094
285.987854 72.432 -179.1299
286.324310 71.675 178.6018
286.660767 70.870 176.4922
286.997223 69.995 174.4902
287.333679 69.016 172.6697
287.670135 67.901 171.2690
288.006592 66.636 170.6726
288.343048 65.233 171.3347
288.679504 63.737 173.6672
289.015961 62.209 177.9346
289.352417 60.705 -175.7061
289.688873 59.273 -166.9304
290.025330 58.037 -155.0815
290.361786 57.304 -140.0027
290.698242 57.419 -123.8381
291.034698 58.308 -110.2148
291.371155 59.539 -100.6868
291.707611 60.782 -94.5166
292.044067 61.923 -90.5300
292.380524 62.954 -87.9641
292.716980 63.888 -86.4690
293.053436 64.719 -85.8723
293.389893 65.432 -85.9766
293.726349 66.013 -86.4902
294.062805 66.473 -87.0742
294.399261 66.842 -87.4504
294.735718 67.171 -87.5054
295.072174 67.504 -87.3386
295.408630 67.864 -87.1965
295.745087 68.239 -87.3188
296.081543 68.598 -87.8066
296.417999 68.911 -88.5896
296.754456 69.163 -89.4902
297.090912 69.359 -90.3186
297.427368 69.519 -90.9485
297.763824 69.668 -91.3572
298.100281 69.827 -91.6211
298.436737 70.005 -91.8696
298.773193 70.197 -92.2261
299.109650 70.388 -92.7615
299.446106 70.562 -93.4741
299.782562 70.705 -94.2993
300.119019 70.814 -95.1379
300.455475 70.891 -95.8921
300.791931 70.949 -96.4976
301.128387 71.001 -96.9443
301.464844 71.058 -97.2666
301.801300 71.123 -97.5151
302.137756 71.196 -97.7261
302.474213 71.276 -97.9084
302.810669 71.365 -98.0598
303.147125 71.466 -98.1934
303.483582 71.584 -98.3499
303.820038 71.717 -98.5847
304.156494 71.857 -98.9395
304.492950 71.994 -99.4155
304.829407 72.122 -99.9739
305.165863 72.237 -100.5542
305.502319 72.344 -101.0989
305.838776 72.451 -101.5737
306.175232 72.568 -101.9814
306.511688 72.706 -102.3684
306.848145 72.871 -102.8279
307.184601 73.061 -103.4810
307.521057 73.259 -104.4329
307.857513 73.443 -105.7214
308.193970 73.586 -107.2786
308.530426 73.672 -108.9429
308.866882 73.704 -110.5146
309.203339 73.703 -111.8413
309.539795 73.699 -112.8992
309.876251 73.719 -113.8176
310.212708 73.765 -114.8049
310.549164 73.816 -116.0139
310.885620 73.839 -117.4399
311.222076 73.814 -118.9216
311.558533 73.741 -120.2341
311.894989 73.649 -121.2190
312.231445 73.573 -121.8855
312.567902 73.542 -122.4182
312.904358 73.554 -123.0674
313.240814 73.584 -123.9985
313.577271 73.599 -125.2156
313.913727 73.580 -126.6008
314.250183 73.524 -128.0107
314.586639 73.439 -129.3582
314.923096 73.338 -130.6382
315.259552 73.222 -131.8862
315.596008 73.087 -133.1179
315.932465 72.926 -134.2944
316.268921 72.741 -135.3438
316.605377 72.540 -136.2134
316.941833 72.337 -136.9131
317.278290 72.136 -137.5073
317.614746 71.933 -138.0596
317.951202 71.718 -138.5764
318.287659 71.481 -138.9919
318.624115 71.226 -139.2117
318.960571 70.964 -139.1760
319.297028 70.709 -138.8982
319.633484 70.469 -138.4438
319.969940 70.237 -137.8608
320.306396 70.007 -137.1262
320.642853 69.777 -136.1519
320.979309 69.561 -134.8511
321.315765 69.384 -133.2214
321.652222 69.265 -131.3762
321.988678 69.209 -129.4900
322.325134 69.201 -127.6965
322.661591 69.223 -126.0254
322.998047 69.262 -124.4153
323.334503 69.319 -122.7866
323.670959 69.404 -121.1111
324.007416 69.529 -119.4363
324.343872 69.696 -117.8550
324.680328 69.898 -116.4517
325.016785 70.123 -115.2612
325.353241 70.361 -114.2705
325.689697 70.608 -113.4456
326.026154 70.864 -112.7654
326.362610 71.132 -112.2390
326.699066 71.410 -111.8992
327.035522 71.695 -111.7781
327.371979 71.976 -111.8816
327.708435 72.245 -112.1792
328.044891 72.500 -112.6133
328.381348 72.743 -113.1265
328.717804 72.982 -113.6904
329.054260 73.224 -114.3213
329.390717 73.475 -115.0723
329.727173 73.732 -116.0068
330.063629 73.986 -117.1638
330.400085 74.227 -118.5396
330.736542 74.446 -120.0916
331.072998 74.639 -121.7588
331.409454 74.810 -123.4893
331.745911 74.962 -125.2534
332.082367 75.101 -127.0488
332.418823 75.228 -128.8904
332.755280 75.343 -130.7932
333.091736 75.443 -132.7656
333.428192 75.527 -134.8069
333.764648 75.591 -136.9109
334.101105 75.632 -139.0679
334.437561 75.648 -141.2625
334.774017 75.635 -143.4661
335.110474 75.591 -145.6372
335.446930 75.520 -147.7275
335.783386 75.427 -149.6987
336.119843 75.320 -151.5408
336.456299 75.208 -153.2791
336.792755 75.093 -154.9624
337.129211 74.972 -156.6357
337.465668 74.840 -158.3140
337.802124 74.689 -159.9722
338.138580 74.519 -161.5605
338.475037 74.334 -163.0347
338.811493 74.141 -164.3813
339.147949 73.947 -165.6228
339.484406 73.753 -166.7996
339.820862 73.555 -167.9336
340.157318 73.348 -169.0098
340.493774 73.130 -169.9802
340.830231 72.909 -170.7961
341.166687 72.693 -171.4446
341.503143 72.496 -171.9717
341.839600 72.322 -172.4685
342.176056 72.164 -173.0303
342.512512 72.010 -173.7083
342.848969 71.842 -174.4849
343.185425 71.652 -175.2815
343.521881 71.436 -175.9890
343.858337 71.207 -176.5156
344.194794 70.981 -176.8328
344.531250 70.776 -176.9985
344.867706 70.601 -177.1453
345.204163 70.448 -177.4182
345.540619 70.296 -177.8984
345.877075 70.120 -178.5554
346.213531 69.903 -179.2549
346.549988 69.645 -179.8169
346.886444 69.363 179.9016
347.222900 69.086 179.9314
347.559357 68.835 -179.8254
347.895813 68.618 -179.5366
348.232269 68.420 -179.3354
348.568726 68.219 -179.2458
348.905182 67.998 -179.1875
349.241638 67.755 -179.0405
349.578094 67.497 -178.7151
349.914551 67.235 -178.1799
350.251007 66.977 -177.4407
350.587463 66.726 -176.4951
350.923920 66.487 -175.3174
351.260376 66.274 -173.8958
351.596832 66.103 -172.2844
351.933289 65.984 -170.6213
352.269745 65.909 -169.0679
352.606201 65.858 -167.7161
352.942657 65.807 -166.5417
353.279114 65.742 -165.4373
353.615570 65.667 -164.2891
353.952026 65.593 -163.0437
354.288483 65.528 -161.7124
354.624939 65.476 -160.3262
354.961395 65.437 -158.8853
355.297852 65.413 -157.3564
355.634308 65.419 -155.7256
355.970764 65.470 -154.0630
356.307220 65.576 -152.5308
356.643677 65.725 -151.3135
356.980133 65.890 -150.5159
357.316589 66.037 -150.1045
357.653046 66.148 -149.9294
357.989502 66.217 -149.7991
358.325958 66.261 -149.5649
358.662415 66.302 -149.1807
358.998871 66.360 -148.7119
359.335327 66.440 -148.2791
359.671783 66.534 -147.9746
360.008240 66.625 -147.8074
360.344696 66.704 -147.7061
360.681152 66.773 -147.5784
361.017609 66.846 -147.3821
361.354065 66.937 -147.1616
361.690521 67.050 -147.0227
362.026978 67.174 -147.0620
362.363434 67.291 -147.2998
362.699890 67.386 -147.6672
363.036346 67.456 -148.0503
363.372803 67.508 -148.3535
363.709259 67.557 -148.5474
364.045715 67.615 -148.6731
364.382172 67.686 -148.8020
364.718628 67.764 -148.9917
365.055084 67.845 -149.2605
365.391541 67.920 -149.5969
365.727997 67.988 -149.9800
366.064453 68.046 -150.3872
366.400909 68.095 -150.7910
366.737366 68.135 -151.1580
367.073822 68.174 -151.4646
367.410278 68.220 -151.7273
367.746735 68.280 -152.0151
368.083191 68.350 -152.4216
368.419647 68.414 -153.0049
368.756104 68.454 -153.7402
369.092560 68.459 -154.5193
369.429016 68.430 -155.2041
369.765472 68.382 -155.7029
370.101929 68.336 -156.0168
370.438385 68.304 -156.2283
370.774841 68.286 -156.4336
371.111298 68.274 -156.6760
371.447754 68.263 -156.9375
371.784210 68.254 -157.1890
372.120667 68.256 -157.4468
372.457123 68.270 -157.7817
372.793579 68.290 -158.2659
373.130035 68.299 -158.9019
373.466492 68.285 -159.6055
373.802948 68.253 -160.2607
374.139404 68.217 -160.8049
374.475861 68.196 -161.2830
374.812317 68.195 -161.8213
375.148773 68.201 -162.5269
375.485229 68.192 -163.4016
375.821686 68.156 -164.3379
376.158142 68.092 -165.1946
376.494598 68.019 -165.8972
376.831055 67.954 -166.4866
377.167511 67.902 -167.0776
377.503967 67.849 -167.7603
377.840424 67.777 -168.5210
378.176880 67.673 -169.2520
378.513336 67.544 -169.8296
378.849792 67.403 -170.1990
379.186249 67.266 -170.4004
379.522705 67.135 -170.5176
379.859161 67.001 -170.5923
380.195618 66.855 -170.5874
380.532074 66.701 -170.4292
380.868530 66.550 -170.0859
381.204987 66.416 -169.6108
381.541443 66.299 -169.1016
381.877899 66.190 -168.6118
382.214355 66.077 -168.1013
382.550812 65.964 -167.4795
382.887268 65.867 -166.7056
383.223724 65.804 -165.8574
383.560181 65.779 -165.0913
383.896637 65.775 -164.5200
384.233093 65.769 -164.1226
384.569550 65.754 -163.7732
384.906006 65.742 -163.3625
385.242462 65.755 -162.9104
385.578918 65.803 -162.5691
385.915375 65.869 -162.4939
386.251831 65.922 -162.6968
386.588287 65.938 -163.0095
386.924744 65.919 -163.1809
387.261200 65.898 -163.0459
387.597656 65.918 -162.6626
387.934113 66.004 -162.3005
388.270569 66.138 -162.2700
388.607025 66.277 -162.7156
388.943481 66.374 -163.5486
389.279938 66.405 -164.5242
389.616394 66.372 -165.3762
389.952850 66.299 -165.9287
390.289307 66.216 -166.1455
390.625763 66.148 -166.1055
390.962219 66.101 -165.9302
391.298676 66.073 -165.7173
391.635132 66.057 -165.5142
391.971588 66.047 -165.3340
392.308044 66.040 -165.1772
392.644501 66.032 -165.0383
392.980957 66.023 -164.9043
393.317413 66.012 -164.7578
393.653870 66.003 -164.5879
393.990326 66.000 -164.3997
394.326782 66.003 -164.2109
394.663239 66.015 -164.0364
394.999695 66.035 -163.8813
395.336151 66.066 -163.7532
395.672607 66.110 -163.6787
396.009064 66.168 -163.7104
396.345520 66.233 -163.9011
396.681976 66.291 -164.2612
397.018433 66.332 -164.7388
397.354889 66.350 -165.2363
397.691345 66.354 -165.6653
398.027802 66.358 -165.9985
398.364258 66.371 -166.2866
398.700714 66.397 -166.6138
399.037170 66.423 -167.0286
399.373627 66.437 -167.4990
399.710083 66.436 -167.9312
400.046539 66.430 -168.2380
