* Measurement data measured by REW V5.31.3
* Source: Scarlett 2i4 USB, MICROPHONE, L, volume: no control. Timing signal peak level -16.5 dBFS, measurement signal peak level -13.9 dBFS
* Format: 512k Log Swept Sine, 1 sweep at -18.0 dBFS using an acoustic timing reference
* Dated: Aug 8, 2024 4:30:42 PM
* REW Settings:
*  C-weighting compensation: Off
*  Target level: 75.0 dB
* Note: ; Delay -7.6237 ms (-2.615 m, -(8 ft 7 in)) using IR start time relative to Acoustic reference played from SPEAKER L with no timing offset Clock adjustment: 3.1 ppm
* Measurement: SR screens-p1-1
* Smoothing: None
* Frequency Step: 0.3364563 Hz
* Start Frequency: 10.093689 Hz
*
* Freq(Hz) SPL(dB) Phase(degrees)
10.093689 70.065 -39.1460
10.430145 70.651 -48.2527
10.766602 70.967 -56.7365
11.103058 71.048 -63.5345
11.439514 71.059 -67.6737
11.775970 71.301 -69.1728
12.112427 72.017 -69.8749
12.448883 73.130 -72.2928
12.785339 74.341 -77.4783
13.121796 75.400 -84.9364
13.458252 76.193 -93.6751
13.794708 76.706 -102.8094
14.131165 76.971 -111.7203
14.467621 77.037 -120.0644
14.804077 76.950 -127.7268
15.140533 76.734 -134.7110
15.476990 76.390 -140.9839
15.813446 75.917 -146.3555
16.149902 75.337 -150.4942
16.486359 74.722 -153.1365
16.822815 74.173 -154.4333
17.159271 73.751 -155.1025
17.495728 73.399 -155.9870
17.832184 72.959 -157.3092
18.168640 72.274 -158.3272
18.505096 71.286 -157.4245
18.841553 70.147 -152.4701
19.178009 69.347 -142.2653
19.514465 69.462 -129.3035
19.850922 70.452 -118.2443
20.187378 71.853 -110.7325
20.523834 73.404 -106.1599
20.860291 75.020 -104.1641
21.196747 76.602 -104.7628
21.533203 78.008 -107.6759
21.869659 79.118 -112.1267
22.206116 79.878 -117.0171
22.542572 80.316 -121.1237
22.879028 80.567 -123.3572
23.215485 80.874 -123.3468
23.551941 81.471 -122.1180
23.888397 82.375 -121.5662
24.224854 83.379 -122.7288
24.561310 84.273 -125.1518
24.897766 84.997 -127.6331
25.234222 85.661 -129.1524
25.570679 86.475 -129.6982
25.907135 87.576 -130.5565
26.243591 88.885 -133.2943
26.580048 90.186 -138.4847
26.916504 91.296 -145.6706
27.252960 92.127 -153.9835
27.589417 92.672 -162.5676
27.925873 92.979 -170.7658
28.262329 93.133 -178.2416
28.598785 93.218 174.9326
28.935242 93.278 168.3439
29.271698 93.285 161.5419
29.608154 93.159 154.3986
29.944611 92.811 147.2784
30.281067 92.198 141.0028
30.617523 91.362 136.6886
30.953979 90.489 135.3007
31.290436 89.888 136.6511
31.626892 89.758 138.7504
31.963348 89.965 139.4155
32.299805 90.212 138.2803
32.636261 90.337 136.4568
32.972717 90.385 135.2167
33.309174 90.545 134.9280
33.645630 90.979 134.5847
33.982086 91.642 132.6388
34.318542 92.328 128.3836
34.654999 92.845 122.1982
34.991455 93.093 114.9606
35.327911 93.055 107.5838
35.664368 92.775 100.8120
36.000824 92.334 95.1078
36.337280 91.826 90.5683
36.673737 91.318 86.9628
37.010193 90.827 83.9746
37.346649 90.335 81.5003
37.683105 89.841 79.7198
38.019562 89.394 78.8405
38.356018 89.083 78.6924
38.692474 88.963 78.5829
39.028931 88.990 77.7074
39.365387 89.050 75.7237
39.701843 89.041 72.8750
40.038300 88.920 69.7004
40.374756 88.712 66.6809
40.711212 88.475 63.9849
41.047668 88.263 61.3957
41.384125 88.076 58.4921
41.720581 87.861 54.9765
42.057037 87.540 50.8898
42.393494 87.050 46.6060
42.729950 86.369 42.7076
43.066406 85.524 39.8376
43.402863 84.599 38.5140
43.739319 83.723 38.8696
44.075775 83.019 40.4437
44.412231 82.532 42.3488
44.748688 82.204 43.8344
45.085144 81.939 44.6896
45.421600 81.668 45.1547
45.758057 81.377 45.5991
46.094513 81.093 46.2570
46.430969 80.855 47.1208
46.767426 80.685 47.9989
47.103882 80.575 48.6747
47.440338 80.502 49.0377
47.776794 80.441 49.1048
48.113251 80.379 48.9612
48.449707 80.315 48.6960
48.786163 80.250 48.3773
49.122620 80.194 48.0570
49.459076 80.158 47.7733
49.795532 80.161 47.5259
50.131989 80.229 47.2317
50.468445 80.381 46.6950
50.804901 80.621 45.6303
51.141357 80.932 43.7397
51.477814 81.275 40.7996
51.814270 81.600 36.7113
52.150726 81.860 31.5045
52.487183 82.012 25.3125
52.823639 82.023 18.3445
53.160095 81.874 10.8601
53.496552 81.559 3.1482
53.833008 81.086 -4.4983
54.169464 80.481 -11.8194
54.505920 79.782 -18.6397
54.842377 79.034 -24.9180
55.178833 78.274 -30.7531
55.515289 77.515 -36.3052
55.851746 76.742 -41.6467
56.188202 75.936 -46.6348
56.524658 75.098 -50.8966
56.861115 74.281 -53.9797
57.197571 73.595 -55.6738
57.534027 73.168 -56.3579
57.870483 73.055 -56.9504
58.206940 73.194 -58.2954
58.543396 73.475 -60.6447
58.879852 73.817 -63.7589
59.216309 74.200 -67.3179
59.552765 74.635 -71.2062
59.889221 75.123 -75.5291
60.225677 75.634 -80.4272
60.562134 76.117 -85.8862
60.898590 76.529 -91.6915
61.235046 76.853 -97.5204
61.571503 77.100 -103.0819
61.907959 77.300 -108.2310
62.244415 77.483 -113.0020
62.580872 77.655 -117.5295
62.917328 77.801 -121.9015
63.253784 77.898 -126.0518
63.590240 77.940 -129.7745
63.926697 77.950 -132.8510
64.263153 77.975 -135.2212
64.599609 78.061 -137.0856
64.936066 78.223 -138.8237
65.272522 78.430 -140.7623
65.608978 78.631 -142.9912
65.945435 78.787 -145.3707
66.281891 78.888 -147.6731
66.618347 78.947 -149.7336
66.954803 78.986 -151.5234
67.291260 79.017 -153.1157
67.627716 79.037 -154.5884
67.964172 79.035 -155.9495
68.300629 79.007 -157.1443
68.637085 78.958 -158.1215
68.973541 78.893 -158.8831
69.309998 78.813 -159.4619
69.646454 78.706 -159.8393
69.982910 78.561 -159.8806
70.319366 78.390 -159.3621
70.655823 78.230 -158.1000
70.992279 78.139 -156.1139
71.328735 78.165 -153.6831
71.665192 78.313 -151.1989
72.001648 78.557 -148.9191
72.338104 78.864 -146.8712
72.674561 79.228 -144.9715
73.011017 79.665 -143.2211
73.347473 80.192 -141.7986
73.683929 80.798 -140.9822
74.020386 81.448 -140.9854
74.356842 82.093 -141.8563
74.693298 82.688 -143.4927
75.029755 83.206 -145.7112
75.366211 83.628 -148.3025
75.702667 83.947 -151.0516
76.039124 84.164 -153.7343
76.375580 84.288 -156.1152
76.712036 84.345 -157.9709
77.048492 84.377 -159.1478
77.384949 84.439 -159.6420
77.721405 84.581 -159.6529
78.057861 84.829 -159.5388
78.394318 85.177 -159.6783
78.730774 85.590 -160.3315
79.067230 86.029 -161.5984
79.403687 86.459 -163.4655
79.740143 86.854 -165.8683
80.076599 87.194 -168.7180
80.413055 87.460 -171.8927
80.749512 87.640 -175.2234
81.085968 87.733 -178.4992
81.422424 87.756 178.4903
81.758881 87.742 175.8786
82.095337 87.734 173.6431
82.431793 87.766 171.5780
82.768250 87.841 169.3746
83.104706 87.935 166.7742
83.441162 88.004 163.6888
83.777618 88.005 160.2155
84.114075 87.917 156.5657
84.450531 87.736 152.9731
84.786987 87.475 149.6207
85.123444 87.153 146.6090
85.459900 86.788 143.9662
85.796356 86.393 141.6889
86.132812 85.975 139.7800
86.469269 85.542 138.2510
86.805725 85.108 137.0955
87.142181 84.681 136.2634
87.478638 84.263 135.6804
87.815094 83.846 135.3118
88.151550 83.421 135.2161
88.488007 82.990 135.5287
88.824463 82.578 136.3603
89.160919 82.224 137.6719
89.497375 81.954 139.2390
89.833832 81.763 140.7764
90.170288 81.618 142.1324
90.506744 81.490 143.3708
90.843201 81.373 144.6703
91.179657 81.291 146.1345
91.516113 81.275 147.6618
91.852570 81.335 148.9872
92.189026 81.447 149.8685
92.525482 81.570 150.2414
92.861938 81.670 150.2219
93.198395 81.739 149.9906
93.534851 81.785 149.6700
93.871307 81.821 149.2759
94.207764 81.850 148.7559
94.544220 81.863 148.0737
94.880676 81.848 147.2662
95.217133 81.800 146.4333
95.553589 81.726 145.6786
95.890045 81.641 145.0458
96.226501 81.561 144.4949
96.562958 81.492 143.9305
96.899414 81.429 143.2610
97.235870 81.361 142.4415
97.572327 81.273 141.4797
97.908783 81.159 140.4145
98.245239 81.012 139.2914
98.581696 80.828 138.1565
98.918152 80.604 137.0633
99.254608 80.337 136.0816
99.591064 80.028 135.2944
99.927521 79.686 134.7822
100.263977 79.320 134.6036
100.600433 78.944 134.7847
100.936890 78.569 135.3260
101.273346 78.204 136.2192
101.609802 77.860 137.4605
101.946259 77.549 139.0411
102.282715 77.289 140.9158
102.619171 77.097 142.9711
102.955627 76.980 145.0241
103.292084 76.931 146.8713
103.628540 76.926 148.3646
103.964996 76.933 149.4655
104.301453 76.928 150.2454
104.637909 76.896 150.8384
104.974365 76.838 151.3786
105.310822 76.765 151.9459
105.647278 76.688 152.5475
105.983734 76.614 153.1357
106.320190 76.540 153.6546
106.656647 76.456 154.0850
106.993103 76.351 154.4633
107.329559 76.221 154.8714
107.666016 76.067 155.4047
108.002472 75.901 156.1341
108.338928 75.737 157.0731
108.675385 75.589 158.1696
109.011841 75.458 159.3351
109.348297 75.335 160.5059
109.684753 75.206 161.6996
110.021210 75.063 163.0220
110.357666 74.915 164.6108
110.694122 74.784 166.5398
111.030579 74.700 168.7472
111.367035 74.678 171.0565
111.703491 74.712 173.2863
112.039948 74.781 175.3565
112.376404 74.871 177.2979
112.712860 74.980 179.1727
113.049316 75.118 -179.0074
113.385773 75.291 -177.2983
113.722229 75.501 -175.7850
114.058685 75.742 -174.5490
114.395142 76.009 -173.6765
114.731598 76.285 -173.2672
115.068054 76.544 -173.3850
115.404510 76.748 -173.9692
115.740967 76.866 -174.7816
116.077423 76.898 -175.4619
116.413879 76.885 -175.7034
116.750336 76.894 -175.4812
117.086792 76.975 -175.1510
117.423248 77.114 -175.2143
117.759705 77.235 -175.8843
118.096161 77.262 -176.8576
118.432617 77.182 -177.4639
118.769073 77.079 -177.1107
119.105530 77.106 -175.8777
119.441986 77.359 -174.7756
119.778442 77.767 -175.0417
120.114899 78.140 -177.1191
120.451355 78.300 179.5365
120.787811 78.159 176.0528
121.124268 77.748 173.7513
121.460724 77.232 173.7214
121.797180 76.894 176.0174
122.133636 76.947 179.0428
122.470093 77.319 -179.3106
122.806549 77.746 -179.8063
123.143005 78.016 178.2072
123.479462 78.063 175.8528
123.815918 77.935 174.0754
124.152374 77.747 173.3081
124.488831 77.613 173.3502
124.825287 77.576 173.5988
125.161743 77.602 173.5562
125.498199 77.629 173.1381
125.834656 77.622 172.5554
126.171112 77.590 172.0237
126.507568 77.559 171.5760
126.844025 77.545 171.0812
127.180481 77.539 170.3912
127.516937 77.522 169.4532
127.853394 77.479 168.3002
128.189850 77.401 166.9757
128.526306 77.282 165.5031
128.862762 77.109 163.9301
129.199219 76.869 162.3918
129.535675 76.566 161.1031
129.872131 76.229 160.2470
130.208588 75.906 159.8156
130.545044 75.629 159.5498
130.881500 75.386 159.1013
131.217957 75.125 158.3185
131.554413 74.791 157.3985
131.890869 74.370 156.7840
132.227325 73.909 156.8786
132.563782 73.486 157.7327
132.900238 73.163 158.9471
133.236694 72.922 159.9988
133.573151 72.694 160.7259
133.909607 72.428 161.4565
134.246063 72.148 162.6738
134.582520 71.950 164.4804
134.918976 71.909 166.3003
135.255432 71.997 167.2560
135.591888 72.084 166.9229
135.928345 72.033 165.6276
136.264801 71.781 164.1874
136.601257 71.357 163.4965
136.937714 70.879 164.0999
137.274170 70.491 165.8195
137.610626 70.264 167.8135
137.947083 70.141 169.2822
138.283539 70.010 170.0977
138.619995 69.806 170.7142
138.956451 69.549 171.6489
139.292908 69.311 173.0277
139.629364 69.141 174.5115
139.965820 69.019 175.6801
140.302277 68.887 176.4694
140.638733 68.720 177.1665
140.975189 68.558 177.9948
141.311646 68.460 178.6996
141.648102 68.424 178.6070
141.984558 68.343 177.2024
142.321014 68.067 174.6204
142.657471 67.482 171.6624
142.993927 66.561 169.5554
143.330383 65.417 169.5558
143.666840 64.308 172.0860
144.003296 63.472 175.7095
144.339752 62.803 178.0345
144.676208 61.866 178.3406
145.012665 60.173 178.6526
145.349121 57.363 -175.2161
145.685577 54.384 -149.9603
146.022034 55.732 -114.4371
146.358490 59.000 -101.3571
146.694946 61.228 -99.9613
147.031403 62.454 -101.1940
147.367859 63.060 -101.4488
147.704315 63.462 -99.4382
148.040771 64.029 -95.8960
148.377228 64.868 -92.8589
148.713684 65.809 -91.6906
149.050140 66.641 -92.2618
149.386597 67.266 -93.6921
149.723053 67.694 -95.1115
150.059509 68.004 -96.0033
150.395966 68.284 -96.3058
150.732422 68.595 -96.3240
151.068878 68.943 -96.4658
151.405334 69.290 -96.9673
151.741791 69.591 -97.7913
152.078247 69.822 -98.7034
152.414703 69.990 -99.4224
152.751160 70.131 -99.7703
153.087616 70.292 -99.7807
153.424072 70.506 -99.7015
153.760529 70.766 -99.8575
154.096985 71.036 -100.4522
154.433441 71.272 -101.4620
154.769897 71.443 -102.6803
155.106354 71.551 -103.8517
155.442810 71.620 -104.8098
155.779266 71.678 -105.5492
156.115723 71.744 -106.1903
156.452179 71.812 -106.8597
156.788635 71.866 -107.5823
157.125092 71.897 -108.2712
157.461548 71.911 -108.8119
157.798004 71.928 -109.1644
158.134460 71.967 -109.4053
158.470917 72.033 -109.6737
158.807373 72.114 -110.0757
159.143829 72.197 -110.6337
159.480286 72.273 -111.3173
159.816742 72.340 -112.1050
160.153198 72.394 -113.0111
160.489655 72.426 -114.0469
160.826111 72.422 -115.1598
161.162567 72.372 -116.2120
161.499023 72.286 -117.0331
161.835480 72.190 -117.5199
162.171936 72.116 -117.7147
162.508392 72.081 -117.7905
162.844849 72.083 -117.9358
163.181305 72.099 -118.2371
163.517761 72.116 -118.6621
163.854218 72.132 -119.1482
164.190674 72.154 -119.7029
164.527130 72.183 -120.4204
164.863586 72.202 -121.3929
165.200043 72.182 -122.5934
165.536499 72.102 -123.8364
165.872955 71.964 -124.8506
166.209412 71.805 -125.4304
166.545868 71.675 -125.5880
166.882324 71.614 -125.5911
167.218781 71.618 -125.8172
167.555237 71.646 -126.5188
167.891693 71.646 -127.6954
168.228149 71.581 -129.1376
168.564606 71.442 -130.5581
168.901062 71.245 -131.7133
169.237518 71.023 -132.4755
169.573975 70.810 -132.8509
169.910431 70.630 -132.9532
170.246887 70.498 -132.9539
170.583344 70.409 -133.0277
170.919800 70.349 -133.3029
171.256256 70.296 -133.8235
171.592712 70.230 -134.5411
171.929169 70.142 -135.3488
172.265625 70.039 -136.1461
172.602081 69.934 -136.9030
172.938538 69.838 -137.6781
173.274994 69.752 -138.5738
173.611450 69.664 -139.6595
173.947906 69.556 -140.9243
174.284363 69.420 -142.2920
174.620819 69.256 -143.6788
174.957275 69.071 -145.0407
175.293732 68.871 -146.3755
175.630188 68.657 -147.6859
175.966644 68.429 -148.9460
176.303101 68.195 -150.1167
176.639557 67.969 -151.2017
176.976013 67.764 -152.2908
177.312469 67.580 -153.5303
177.648926 67.398 -155.0229
177.985382 67.193 -156.7427
178.321838 66.955 -158.5465
178.658295 66.693 -160.2836
178.994751 66.437 -161.9322
179.331207 66.203 -163.6489
179.667664 65.982 -165.6554
180.004120 65.732 -168.0298
180.340576 65.412 -170.5774
180.677032 65.014 -172.8849
181.013489 64.587 -174.5552
181.349945 64.226 -175.5426
181.686401 64.013 -176.3614
182.022858 63.939 -177.8289
182.359314 63.903 179.5394
182.695770 63.782 175.8719
183.032227 63.500 171.8122
183.368683 63.068 168.1855
183.705139 62.583 165.6104
184.041595 62.196 164.0627
184.378052 62.015 162.7087
184.714508 62.005 160.4673
185.050964 62.031 156.8567
185.387421 61.959 152.2105
185.723877 61.743 147.3088
186.060333 61.427 142.9155
186.396790 61.130 139.3641
186.733246 60.972 136.2972
187.069702 60.988 132.8810
187.406158 61.102 128.4728
187.742615 61.204 123.0591
188.079071 61.225 117.1243
188.415527 61.167 111.2637
188.751984 61.086 105.8357
189.088440 61.049 100.7808
189.424896 61.075 95.7309
189.761353 61.122 90.3780
190.097809 61.115 84.7880
190.434265 61.006 79.4109
190.770721 60.812 74.8336
191.107178 60.617 71.3976
191.443634 60.527 68.8499
191.780090 60.579 66.3910
192.116547 60.693 63.2838
192.453003 60.727 59.4405
192.789459 60.571 55.4674
193.125916 60.201 52.3614
193.462372 59.707 51.0994
193.798828 59.289 52.0432
194.135284 59.146 54.3676
194.471741 59.308 56.4675
194.808197 59.616 57.3262
195.144653 59.896 57.0806
195.481110 60.076 56.4468
195.817566 60.181 56.0303
196.154022 60.279 55.9875
196.490479 60.409 56.0873
196.826935 60.556 56.0674
197.163391 60.681 55.9471
197.499847 60.771 56.0067
197.836304 60.866 56.4915
198.172760 61.030 57.2975
198.509216 61.291 57.9407
198.845673 61.603 57.9189
199.182129 61.870 57.1362
199.518585 62.008 56.0121
199.855042 61.996 55.2978
200.191498 61.903 55.7497
200.527954 61.881 57.6619
200.864410 62.091 60.4227
201.200867 62.571 62.7289
201.537323 63.200 63.5715
201.873779 63.806 62.8598
202.210236 64.279 61.1714
202.546692 64.594 59.2496
202.883148 64.797 57.6437
203.219604 64.962 56.5129
203.556061 65.143 55.6285
203.892517 65.338 54.6325
204.228973 65.499 53.3859
204.565430 65.581 52.1125
204.901886 65.584 51.2511
205.238342 65.569 51.1300
205.574799 65.624 51.6507
205.911255 65.797 52.2599
206.247711 66.052 52.3583
206.584167 66.302 51.7737
206.920624 66.477 50.8265
207.257080 66.574 50.0305
207.593536 66.653 49.6998
207.929993 66.788 49.6929
208.266449 67.003 49.5088
208.602905 67.252 48.7198
208.939362 67.456 47.3218
209.275818 67.566 45.6974
209.612274 67.597 44.3121
209.948730 67.612 43.3710
210.285187 67.674 42.6432
210.621643 67.785 41.6421
210.958099 67.883 40.0628
211.294556 67.884 38.0722
211.631012 67.752 36.2377
211.967468 67.526 35.2101
212.303925 67.321 35.2814
212.640381 67.260 36.0248
212.976837 67.372 36.4717
213.313293 67.560 35.8750
213.649750 67.684 34.2407
213.986206 67.657 32.1866
214.322662 67.482 30.5054
214.659119 67.248 29.7296
214.995575 67.072 29.7864
215.332031 67.021 30.0037
215.668488 67.051 29.6498
216.004944 67.055 28.5289
216.341400 66.944 27.0557
216.677856 66.708 25.9186
217.014313 66.418 25.6428
217.350769 66.184 26.2235
217.687225 66.076 27.0829
218.023682 66.066 27.5399
218.360138 66.063 27.3740
218.696594 65.996 26.9084
219.033051 65.866 26.6597
219.369507 65.737 26.8967
219.705963 65.679 27.3943
220.042419 65.700 27.6139
220.378876 65.731 27.2033
220.715332 65.686 26.3245
221.051788 65.525 25.5559
221.388245 65.290 25.5338
221.724701 65.093 26.5063
222.061157 65.047 28.0323
222.397614 65.171 29.2130
222.734070 65.375 29.3930
223.070526 65.538 28.5791
223.406982 65.584 27.2736
223.743439 65.512 26.0945
224.079895 65.376 25.4620
224.416351 65.254 25.4174
224.752808 65.202 25.6401
225.089264 65.221 25.6846
225.425720 65.269 25.2618
225.762177 65.293 24.3397
226.098633 65.255 23.0690
226.435089 65.136 21.6722
226.771545 64.932 20.3851
227.108002 64.654 19.4391
227.444458 64.332 19.0316
227.780914 64.012 19.2460
228.117371 63.746 19.9493
228.453827 63.565 20.7823
228.790283 63.452 21.3268
229.126740 63.355 21.3510
229.463196 63.211 20.9318
229.799652 62.984 20.3807
230.136108 62.681 20.0667
230.472565 62.341 20.2270
230.809021 62.015 20.8470
231.145477 61.731 21.6933
231.481934 61.480 22.5104
231.818390 61.226 23.2377
232.154846 60.945 24.0677
232.491302 60.650 25.3057
232.827759 60.400 27.1089
233.164215 60.266 29.2550
233.500671 60.275 31.1692
233.837128 60.384 32.2819
234.173584 60.500 32.4009
234.510040 60.544 31.7672
234.846497 60.486 30.8443
235.182953 60.345 30.0447
235.519409 60.173 29.5170
235.855865 60.007 29.0991
236.192322 59.837 28.5203
236.528778 59.615 27.7340
236.865234 59.294 27.0974
237.201691 58.892 27.2427
237.538147 58.525 28.6209
237.874603 58.357 30.8623
238.211060 58.462 32.6476
238.547516 58.717 32.6766
238.883972 58.900 30.6683
239.220428 58.829 27.3237
239.556885 58.419 23.8445
239.893341 57.691 21.6174
240.229797 56.801 21.9136
240.566254 56.047 25.1366
240.902710 55.724 29.8638
241.239166 55.832 33.6032
241.575623 56.104 35.0724
241.912079 56.297 34.6661
242.248535 56.322 33.3483
242.584991 56.198 31.8383
242.921448 55.976 30.3647
243.257904 55.678 28.7991
243.594360 55.264 27.0247
243.930817 54.666 25.2906
244.267273 53.843 24.3426
244.603729 52.850 25.2651
244.940186 51.910 28.8259
245.276642 51.338 34.1877
245.613098 51.231 38.6440
245.949554 51.290 40.0325
246.286011 51.110 38.3920
246.622467 50.402 35.1767
246.958923 48.998 32.5270
247.295380 46.854 33.5966
247.631836 44.342 43.1290
247.968292 42.880 62.4322
248.304749 43.243 79.6300
248.641205 43.905 88.3888
248.977661 43.935 93.9770
249.314117 43.477 102.0757
249.650574 43.319 114.6351
249.987030 44.040 127.0018
250.323486 45.117 134.5451
250.659943 45.872 138.6716
250.996399 46.191 143.0421
251.332855 46.459 150.1842
251.669312 47.256 158.8881
252.005768 48.639 164.8674
252.342224 50.099 166.1642
252.678680 51.226 164.0161
253.015137 51.890 160.4030
253.351593 52.130 156.9853
253.688049 52.085 154.9178
254.024506 51.958 154.6359
254.360962 51.944 155.6060
254.697418 52.107 156.6370
255.033875 52.362 156.7987
255.370331 52.577 155.9525
255.706787 52.665 154.5134
256.043243 52.596 153.0392
256.379700 52.380 152.0410
256.716156 52.051 151.9920
257.052612 51.676 153.3608
257.389069 51.385 156.4214
257.725525 51.350 160.7455
258.061981 51.662 164.9527
258.398438 52.212 167.5573
258.734894 52.767 168.1049
259.071350 53.129 167.2615
259.407806 53.210 166.2777
259.744263 53.053 166.5316
260.080719 52.849 169.0192
260.417175 52.878 173.5004
260.753632 53.300 178.1679
261.090088 53.982 -178.8402
261.426544 54.660 -177.8578
261.763000 55.166 -177.9902
262.099457 55.488 -178.0919
262.435913 55.730 -177.4467
262.772369 56.030 -176.1545
263.108826 56.450 -175.0067
263.445282 56.923 -174.7405
263.781738 57.325 -175.4006
264.118195 57.581 -176.3904
264.454651 57.711 -176.9442
264.791107 57.826 -176.6750
265.127563 58.050 -175.9708
265.464020 58.406 -175.7949
265.800476 58.790 -176.8754
266.136932 59.046 -179.1459
266.473389 59.075 178.1368
266.809845 58.871 175.9996
267.146301 58.539 175.3246
267.482758 58.267 176.3052
267.819214 58.218 178.0562
268.155670 58.385 179.1658
268.492126 58.603 178.8837
268.828583 58.706 177.5143
269.165039 58.624 175.9330
269.501495 58.394 175.0034
269.837952 58.133 175.1295
270.174408 57.961 175.9973
270.510864 57.914 176.7836
270.847321 57.916 176.8120
271.183777 57.843 176.0132
271.520233 57.599 174.8672
271.856689 57.144 174.1474
272.193146 56.511 174.7285
272.529602 55.814 177.3847
272.866058 55.258 -177.6586
273.202515 55.058 -171.3378
273.538971 55.252 -165.5215
273.875427 55.652 -161.5531
274.211884 56.017 -159.3793
274.548340 56.212 -158.0100
274.884796 56.243 -156.2684
275.221252 56.238 -153.3993
275.557709 56.372 -149.5697
275.894165 56.728 -145.8076
276.230621 57.235 -143.0834
276.567078 57.757 -141.5528
276.903534 58.221 -140.7603
277.239990 58.639 -140.2590
277.576447 59.056 -140.0076
277.912903 59.481 -140.3082
278.249359 59.862 -141.3986
278.585815 60.118 -143.1107
278.922272 60.203 -144.8636
279.258728 60.142 -145.9137
279.595184 60.045 -145.7519
279.931641 60.061 -144.5438
280.268097 60.275 -143.2007
280.604553 60.637 -142.7322
280.941010 61.009 -143.5049
281.277466 61.274 -145.1822
281.613922 61.386 -147.1135
281.950378 61.366 -148.6954
282.286835 61.277 -149.5773
282.623291 61.190 -149.7296
282.959747 61.158 -149.3724
283.296204 61.199 -148.8174
283.632660 61.310 -148.3491
283.969116 61.469 -148.1957
284.305573 61.642 -148.5157
284.642029 61.777 -149.3339
284.978485 61.826 -150.4691
285.314941 61.758 -151.5283
285.651398 61.586 -152.0045
285.987854 61.376 -151.4841
286.324310 61.236 -149.9325
286.660767 61.259 -147.8654
286.997223 61.452 -146.1080
287.333679 61.739 -145.2522
287.670135 62.014 -145.3563
288.006592 62.210 -146.0807
288.343048 62.309 -146.9807
288.679504 62.337 -147.7319
289.015961 62.332 -148.2321
289.352417 62.322 -148.5648
289.688873 62.307 -148.8522
290.025330 62.276 -149.1064
290.361786 62.223 -149.2017
290.698242 62.169 -148.9930
291.034698 62.156 -148.4989
291.371155 62.216 -147.9869
291.707611 62.337 -147.8389
292.044067 62.466 -148.2731
292.380524 62.540 -149.1735
292.716980 62.527 -150.1493
293.053436 62.448 -150.7545
293.389893 62.371 -150.7656
293.726349 62.373 -150.3821
294.062805 62.482 -150.1487
294.399261 62.657 -150.5780
294.735718 62.813 -151.8107
295.072174 62.884 -153.5971
295.408630 62.842 -155.5009
295.745087 62.710 -157.1274
296.081543 62.534 -158.2816
296.417999 62.362 -159.0169
296.754456 62.221 -159.5549
297.090912 62.105 -160.1285
297.427368 61.993 -160.8656
297.763824 61.858 -161.7717
298.100281 61.681 -162.7679
298.436737 61.448 -163.7234
298.773193 61.159 -164.4662
299.109650 60.827 -164.8129
299.446106 60.482 -164.6378
299.782562 60.167 -163.9655
300.119019 59.916 -163.0032
300.455475 59.736 -162.0574
300.791931 59.604 -161.3889
301.128387 59.487 -161.1282
301.464844 59.343 -161.2814
301.801300 59.133 -161.7396
302.137756 58.822 -162.2281
302.474213 58.400 -162.2465
302.810669 57.923 -161.1675
303.147125 57.545 -158.7059
303.483582 57.453 -155.6575
303.820038 57.675 -153.8506
304.156494 57.994 -154.7155
304.492950 58.110 -158.2770
304.829407 57.787 -163.4717
305.165863 56.873 -168.5917
305.502319 55.321 -171.1359
305.838776 53.364 -167.3945
306.175232 51.998 -155.0127
306.511688 52.284 -141.5096
306.848145 53.354 -135.8446
307.184601 54.060 -136.3831
307.521057 54.085 -138.7650
307.857513 53.531 -139.5112
308.193970 52.790 -136.2809
308.530426 52.463 -129.5569
308.866882 52.793 -123.3627
309.203339 53.360 -120.5411
309.539795 53.709 -120.2442
309.876251 53.710 -120.2216
310.212708 53.509 -118.6427
310.549164 53.407 -115.1371
310.885620 53.613 -111.1972
311.222076 54.038 -108.6799
311.558533 54.428 -107.9742
311.894989 54.617 -108.1521
312.231445 54.601 -107.9918
312.567902 54.499 -106.7214
312.904358 54.467 -104.4264
313.240814 54.584 -101.9115
313.577271 54.799 -99.9415
313.913727 55.014 -98.6533
314.250183 55.172 -97.6866
314.586639 55.283 -96.6534
314.923096 55.394 -95.4651
315.259552 55.530 -94.3309
315.596008 55.671 -93.4866
315.932465 55.774 -92.9330
316.268921 55.811 -92.4144
316.605377 55.794 -91.6059
316.941833 55.771 -90.3423
317.278290 55.791 -88.7349
317.614746 55.873 -87.0773
317.951202 56.002 -85.6187
318.287659 56.146 -84.4187
318.624115 56.287 -83.3994
318.960571 56.427 -82.4848
319.297028 56.567 -81.6715
319.633484 56.704 -80.9777
319.969940 56.826 -80.3507
320.306396 56.938 -79.6627
320.642853 57.062 -78.8328
320.979309 57.230 -77.9729
321.315765 57.450 -77.3800
321.652222 57.683 -77.3203
321.988678 57.868 -77.7839
322.325134 57.955 -78.4314
322.661591 57.949 -78.7571
322.998047 57.911 -78.3804
323.334503 57.932 -77.3360
323.670959 58.074 -76.1311
324.007416 58.320 -75.4053
324.343872 58.591 -75.4797
324.680328 58.810 -76.2454
325.016785 58.940 -77.3741
325.353241 58.977 -78.5645
325.689697 58.930 -79.6360
326.026154 58.804 -80.4539
326.362610 58.599 -80.7878
326.699066 58.346 -80.2881
327.035522 58.127 -78.7147
327.371979 58.059 -76.3458
327.708435 58.198 -74.0908
328.044891 58.468 -72.8878
328.381348 58.715 -72.9601
328.717804 58.816 -73.7349
329.054260 58.753 -74.2737
329.390717 58.615 -73.8255
329.727173 58.561 -72.3775
330.063629 58.690 -70.8158
330.400085 58.944 -70.2042
330.736542 59.164 -70.8434
331.072998 59.221 -72.1369
331.409454 59.094 -73.0687
331.745911 58.884 -72.7937
332.082367 58.770 -71.2451
332.418823 58.881 -69.3875
332.755280 59.174 -68.4907
333.091736 59.483 -69.0636
333.428192 59.661 -70.6765
333.764648 59.654 -72.4637
334.101105 59.510 -73.6277
334.437561 59.337 -73.8041
334.774017 59.252 -73.2589
335.110474 59.296 -72.7015
335.446930 59.423 -72.7517
335.783386 59.545 -73.5667
336.119843 59.595 -74.9052
336.456299 59.554 -76.3945
336.792755 59.437 -77.7371
337.129211 59.274 -78.7899
337.465668 59.091 -79.5439
337.802124 58.908 -80.0596
338.138580 58.733 -80.4110
338.475037 58.571 -80.6676
338.811493 58.423 -80.8928
339.147949 58.286 -81.1400
339.484406 58.157 -81.4481
339.820862 58.035 -81.8533
340.157318 57.914 -82.4100
340.493774 57.786 -83.1868
340.830231 57.628 -84.2149
341.166687 57.413 -85.4166
341.503143 57.122 -86.5724
341.839600 56.763 -87.3766
342.176056 56.378 -87.5872
342.512512 56.035 -87.2217
342.848969 55.782 -86.6437
343.185425 55.613 -86.3815
343.521881 55.464 -86.7716
343.858337 55.254 -87.7506
344.194794 54.932 -88.9269
344.531250 54.498 -89.8049
344.867706 53.999 -90.0247
345.204163 53.502 -89.5353
345.540619 53.057 -88.5975
345.877075 52.664 -87.5701
346.213531 52.291 -86.6544
346.549988 51.903 -85.8326
346.886444 51.485 -85.0022
347.222900 51.032 -84.1180
347.559357 50.525 -83.1809
347.895813 49.929 -82.0747
348.232269 49.216 -80.4250
348.568726 48.405 -77.6555
348.905182 47.588 -73.3363
349.241638 46.896 -67.6924
349.578094 46.367 -61.6217
349.914551 45.882 -55.7349
350.251007 45.277 -49.3375
350.587463 44.572 -40.4617
350.923920 44.188 -27.5630
351.260376 44.727 -13.1234
351.596832 46.083 -2.5510
351.933289 47.579 2.5122
352.269745 48.783 3.8477
352.606201 49.588 3.5580
352.942657 50.045 3.1783
353.279114 50.277 3.6610
353.615570 50.442 5.3452
353.952026 50.685 7.8975
354.288483 51.075 10.5007
354.624939 51.578 12.3516
354.961395 52.098 13.0705
355.297852 52.541 12.7450
355.634308 52.843 11.7673
355.970764 52.980 10.6772
356.307220 52.977 10.0353
356.643677 52.911 10.2516
356.980133 52.889 11.3447
357.316589 53.001 12.8026
357.653046 53.254 13.8336
357.989502 53.568 13.8987
358.325958 53.845 12.9952
358.662415 54.025 11.4995
358.998871 54.100 9.8496
359.335327 54.101 8.3035
359.671783 54.057 6.8855
360.008240 53.969 5.5371
360.344696 53.817 4.3512
360.681152 53.600 3.6615
361.017609 53.373 3.8340
361.354065 53.244 4.8197
361.690521 53.289 5.8776
362.026978 53.452 6.0298
362.363434 53.570 4.9310
362.699890 53.482 3.2091
363.036346 53.138 2.1903
363.372803 52.661 3.3175
363.709259 52.372 6.9998
364.045715 52.555 11.3663
364.382172 53.105 13.5997
364.718628 53.628 12.8253
365.055084 53.819 10.2473
365.391541 53.578 7.8820
365.727997 53.019 7.8291
366.064453 52.508 11.3156
366.400909 52.504 16.8568
366.737366 53.038 20.7494
367.073822 53.672 21.1635
367.410278 54.018 19.1235
367.746735 53.936 16.6798
368.083191 53.507 15.8461
368.419647 53.013 17.9124
368.756104 52.842 22.2381
369.092560 53.140 26.1227
369.429016 53.652 27.4601
369.765472 54.043 26.3718
370.101929 54.144 24.1709
370.438385 53.954 22.2444
370.774841 53.588 21.5601
371.111298 53.215 22.3532
371.447754 52.971 24.0251
371.784210 52.869 25.6257
372.120667 52.822 26.6226
372.457123 52.731 27.1559
372.793579 52.564 27.7252
373.130035 52.354 28.7783
373.466492 52.170 30.4437
373.802948 52.075 32.4760
374.139404 52.083 34.4232
374.475861 52.159 35.9055
374.812317 52.242 36.7979
375.148773 52.270 37.2524
375.485229 52.210 37.6281
375.821686 52.062 38.3893
376.158142 51.877 39.9510
376.494598 51.746 42.4440
376.831055 51.764 45.4958
377.167511 51.959 48.3196
377.503967 52.262 50.2061
377.840424 52.549 50.9784
378.176880 52.716 51.0281
378.513336 52.721 51.0785
378.849792 52.604 51.8900
379.186249 52.478 53.9100
379.522705 52.489 56.8958
379.859161 52.713 59.8975
380.195618 53.089 61.9213
380.532074 53.477 62.6429
380.868530 53.765 62.4431
381.204987 53.919 61.9910
381.541443 53.983 61.8162
381.877899 54.036 62.0169
382.214355 54.131 62.2316
382.550812 54.245 61.9759
382.887268 54.298 61.1049
383.223724 54.214 59.9947
383.560181 53.979 59.3768
383.896637 53.677 59.9466
384.233093 53.469 61.8094
384.569550 53.488 64.1090
384.906006 53.715 65.5403
385.242462 53.985 65.4243
385.578918 54.131 64.0797
385.915375 54.073 62.4075
386.251831 53.840 61.3685
386.588287 53.549 61.5338
386.924744 53.344 62.7246
387.261200 53.289 64.1028
387.597656 53.319 64.9057
387.934113 53.311 65.0923
388.270569 53.199 65.2639
388.607025 53.018 66.1233
388.943481 52.881 67.8844
389.279938 52.883 69.9980
389.616394 53.003 71.6003
389.952850 53.119 72.3276
390.289307 53.117 72.5932
390.625763 52.971 73.2310
390.962219 52.761 74.9337
391.298676 52.625 77.7426
391.635132 52.652 80.9532
391.971588 52.808 83.7348
392.308044 52.988 85.8432
392.644501 53.122 87.6270
392.980957 53.214 89.5360
393.317413 53.315 91.7098
393.653870 53.452 93.9646
393.990326 53.613 96.1288
394.326782 53.773 98.3084
394.663239 53.956 100.7405
394.999695 54.229 103.3712
395.336151 54.635 105.6505
395.672607 55.124 106.9104
396.009064 55.578 106.9551
396.345520 55.898 106.2103
396.681976 56.055 105.4307
397.018433 56.108 105.2773
397.354889 56.170 105.9280
397.691345 56.336 106.9348
398.027802 56.605 107.5843
398.364258 56.903 107.4949
398.700714 57.152 106.8169
399.037170 57.331 105.9496
399.373627 57.471 105.1502
399.710083 57.609 104.3419
400.046539 57.743 103.2590
