* Measurement data measured by REW V5.31
* Source: Scarlett 2i4 USB, MICROPHONE, R, volume: no control. Timing signal peak level -37.9 dBFS, measurement signal peak level -25.8 dBFS
* Format: 512k Log Swept Sine, 1 sweep at -18.0 dBFS using an acoustic timing reference
* Dated: Apr 24, 2024 6:44:50 PM
* REW Settings:
*  C-weighting compensation: Off
*  Target level: 75.0 dB
* Note: ; Delay -0.0076 ms (-2.6 mm, -0.1 in) using estimated IR delay relative to Acoustic reference played from SPEAKER L with no timing offset
* Measurement: abs-p1-lrss
* Smoothing: 1/48 octave
* Frequency Step: 96 ppo
* Start Frequency: 10.093689 Hz
*
* Freq(Hz) SPL(dB) Phase(degrees)
10.093689 60.800 -66.0980
10.166832 60.885 -67.7487
10.240505 60.987 -69.3559
10.314712 61.093 -70.9310
10.389457 61.202 -72.4827
10.464743 61.316 -74.0130
10.540575 61.438 -75.5007
10.616956 61.567 -76.9620
10.693891 61.701 -78.4197
10.771383 61.841 -79.8957
10.849437 61.987 -81.3736
10.928057 62.139 -82.8443
11.007246 62.295 -84.3286
11.087009 62.454 -85.8483
11.167350 62.615 -87.4120
11.248273 62.780 -89.0009
11.329783 62.946 -90.6161
11.411883 63.111 -92.2628
11.494578 63.272 -93.9527
11.577873 63.431 -95.6906
11.661771 63.586 -97.4554
11.746277 63.736 -99.2288
11.831395 63.879 -101.0124
11.917130 64.014 -102.8371
12.003487 64.143 -104.6704
12.090469 64.264 -106.4764
12.178081 64.377 -108.2503
12.266329 64.482 -110.0303
12.355216 64.581 -111.7852
12.444747 64.675 -113.4777
12.534926 64.764 -115.1055
12.625760 64.849 -116.6931
12.717251 64.934 -118.2290
12.809406 65.022 -119.6962
12.902228 65.112 -121.0823
12.995723 65.207 -122.4109
13.089895 65.311 -123.7081
13.184750 65.427 -124.9745
13.280292 65.554 -126.1791
13.376526 65.693 -127.3779
13.473458 65.846 -128.6292
13.571093 66.013 -129.8938
13.669434 66.194 -131.1796
13.768489 66.384 -132.5503
13.868261 66.581 -134.0352
13.968756 66.788 -135.5889
14.069979 66.997 -137.2352
14.171936 67.204 -139.0061
14.274632 67.409 -140.8967
14.378072 67.610 -142.8794
14.482261 67.800 -144.9400
14.587206 67.979 -147.1146
14.692910 68.147 -149.3753
14.799381 68.299 -151.6633
14.906624 68.435 -154.0015
15.014643 68.555 -156.4053
15.123446 68.658 -158.7961
15.233036 68.745 -161.1642
15.343421 68.816 -163.5561
15.454606 68.873 -165.9043
15.566596 68.917 -168.1816
15.679398 68.949 -170.4335
15.793018 68.972 -172.6247
15.907460 68.989 -174.7320
16.022732 69.000 -176.7825
16.138840 69.009 -178.7780
16.255788 69.018 179.2907
16.373585 69.027 177.4131
16.492234 69.037 175.5624
16.611744 69.050 173.7391
16.732119 69.065 171.9395
16.853367 69.080 170.1392
16.975494 69.095 168.3335
17.098505 69.109 166.5292
17.222408 69.118 164.7236
17.347209 69.122 162.9049
17.472914 69.120 161.1014
17.599530 69.110 159.3226
17.727063 69.094 157.5579
17.855521 69.071 155.8472
17.984909 69.043 154.1918
18.115235 69.011 152.5883
18.246506 68.981 151.0555
18.378727 68.951 149.5939
18.511907 68.928 148.1696
18.646052 68.912 146.7938
18.781169 68.905 145.4425
18.917265 68.907 144.0587
19.054347 68.918 142.6628
19.192423 68.933 141.2040
19.331499 68.951 139.6591
19.471583 68.965 138.0450
19.612682 68.969 136.3452
19.754804 68.961 134.5578
19.897956 68.932 132.7578
20.042144 68.881 130.9044
20.187378 68.805 129.0988
20.333664 68.702 127.3721
20.481010 68.576 125.7451
20.629424 68.430 124.3336
20.778913 68.269 123.1182
20.929486 68.108 122.1656
21.081150 67.952 121.5078
21.233912 67.822 121.0674
21.387782 67.726 120.8939
21.542767 67.675 120.8276
21.698874 67.678 120.8426
21.856113 67.730 120.7061
22.014492 67.827 120.3410
22.174018 67.959 119.8228
22.334700 68.106 118.9692
22.496546 68.258 117.7716
22.659566 68.395 116.2509
22.823766 68.511 114.4414
22.989157 68.590 112.4440
23.155745 68.630 110.2516
23.323542 68.625 108.0335
23.492554 68.574 105.7586
23.662790 68.481 103.6069
23.834261 68.348 101.5493
24.006973 68.186 99.7251
24.180938 68.001 98.1179
24.356163 67.809 96.7851
24.532658 67.618 95.7076
24.710431 67.443 94.8444
24.889493 67.290 94.1508
25.069853 67.165 93.5247
25.251519 67.064 92.9081
25.434502 66.981 92.2133
25.618811 66.905 91.4313
25.804456 66.824 90.5274
25.991445 66.728 89.5917
26.179790 66.610 88.6341
26.369500 66.469 87.8118
26.560584 66.313 87.1515
26.753053 66.153 86.7828
26.946917 66.010 86.6726
27.142185 65.905 86.8514
27.338869 65.855 87.1125
27.536977 65.869 87.3896
27.736522 65.940 87.3830
27.937512 66.050 87.0307
28.139959 66.174 86.1812
28.343872 66.278 84.8969
28.549264 66.343 83.1864
28.756143 66.345 81.2463
28.964522 66.278 79.1951
29.174411 66.139 77.1868
29.385821 65.941 75.4277
29.598763 65.697 73.9714
29.813248 65.435 72.9353
30.029287 65.177 72.2242
30.246891 64.941 71.8023
30.466073 64.736 71.4265
30.686842 64.547 70.9840
30.909212 64.355 70.3603
31.133193 64.125 69.5637
31.358797 63.830 68.7661
31.586035 63.451 68.1324
31.814921 62.986 68.1055
32.045465 62.465 69.0019
32.277680 61.940 71.1809
32.511577 61.513 74.7951
32.747169 61.287 79.4438
32.984469 61.314 84.4604
33.223488 61.587 88.8562
33.464239 62.005 92.0309
33.706735 62.480 93.9698
33.950987 62.937 94.8595
34.197010 63.336 95.1482
34.444816 63.682 95.1941
34.694417 63.997 95.2077
34.945827 64.316 95.3300
35.199059 64.675 95.4580
35.454126 65.088 95.3440
35.711041 65.549 94.7610
35.969818 66.032 93.4961
36.230470 66.494 91.4302
36.493011 66.898 88.6547
36.757455 67.215 85.3212
37.023814 67.425 81.6027
37.292104 67.521 77.7344
37.562338 67.507 73.9734
37.834530 67.400 70.4835
38.108695 67.222 67.3844
38.384846 66.998 64.7472
38.662999 66.754 62.5590
38.943167 66.510 60.7117
39.225365 66.269 59.0923
39.509608 66.028 57.6281
39.795911 65.780 56.2974
40.084289 65.520 55.1290
40.374756 65.252 54.1771
40.667328 64.984 53.4639
40.962020 64.725 52.9398
41.258848 64.477 52.5185
41.557827 64.229 52.1425
41.858972 63.964 51.8416
42.162299 63.671 51.7585
42.467824 63.357 52.1216
42.775564 63.052 53.1518
43.085533 62.810 54.9131
43.397749 62.688 57.1830
43.712227 62.712 59.4766
44.028983 62.864 61.2825
44.348036 63.091 62.3055
44.669400 63.333 62.5281
44.993093 63.551 62.1157
45.319131 63.722 61.2905
45.647532 63.841 60.2497
45.978313 63.915 59.1372
46.311491 63.950 58.0497
46.647083 63.957 57.0519
46.985107 63.945 56.1840
47.325581 63.928 55.4548
47.668521 63.913 54.8379
48.013947 63.907 54.2876
48.361876 63.907 53.7766
48.712326 63.913 53.3314
49.065315 63.930 53.0289
49.420863 63.976 52.9396
49.778987 64.079 53.0417
50.139706 64.263 53.1687
50.503039 64.537 53.0542
50.869005 64.888 52.4458
51.237623 65.294 51.1967
51.608912 65.733 49.2542
51.982891 66.194 46.5690
52.359580 66.661 43.0216
52.739000 67.109 38.4406
53.121168 67.493 32.7005
53.506106 67.759 25.8184
53.893833 67.849 17.9677
54.284370 67.720 9.4656
54.677737 67.341 0.7507
55.073955 66.701 -7.6600
55.473043 65.816 -15.2162
55.875024 64.724 -21.4031
56.279917 63.495 -25.8217
56.687745 62.219 -28.3112
57.098527 60.986 -29.0234
57.512287 59.877 -28.2825
57.929045 58.954 -26.4177
58.348822 58.278 -23.8539
58.771642 57.883 -21.3190
59.197525 57.743 -19.6291
59.626495 57.773 -19.2310
60.058573 57.891 -20.1093
60.493782 58.050 -22.0676
60.932145 58.229 -25.0070
61.373685 58.408 -28.9441
61.818424 58.557 -33.8580
62.266386 58.645 -39.5657
62.717593 58.661 -45.7858
63.172071 58.614 -52.2172
63.629842 58.528 -58.6393
64.090930 58.432 -64.9466
64.555359 58.348 -71.0552
65.023154 58.299 -76.8673
65.494339 58.315 -82.3171
65.968938 58.422 -87.4712
66.446976 58.630 -92.5168
66.928478 58.918 -97.6405
67.413469 59.255 -102.8559
67.901975 59.620 -108.0181
68.394021 60.017 -113.0102
68.889632 60.451 -117.8990
69.388835 60.910 -122.8837
69.891655 61.359 -128.0520
70.398118 61.771 -133.2754
70.908252 62.140 -138.3722
71.422083 62.472 -143.3184
71.939636 62.752 -148.2581
72.460941 62.937 -153.1374
72.986023 63.003 -157.3704
73.514909 63.028 -159.8966
74.047629 63.213 -160.1978
74.584208 63.751 -159.4135
75.124676 64.601 -160.0042
75.669061 65.536 -163.1903
76.217390 66.347 -168.5875
76.769692 66.938 -175.1995
77.325997 67.287 177.8187
77.886333 67.418 171.2119
78.450730 67.389 165.5272
79.019216 67.287 160.9822
79.591822 67.180 157.1953
80.168577 67.062 153.6589
80.749512 66.891 150.4902
81.334656 66.688 148.4680
81.924040 66.573 147.9535
82.517696 66.652 148.1512
83.115653 66.921 148.0036
83.717943 67.329 147.3029
84.324598 67.866 146.0973
84.935649 68.511 143.8150
85.551128 69.173 139.8416
86.171066 69.741 134.2781
86.795497 70.160 127.7678
87.424453 70.436 120.9265
88.057967 70.610 114.0380
88.696071 70.726 107.0549
89.338800 70.805 99.6930
89.986185 70.832 91.5999
90.638262 70.764 82.5425
91.295065 70.549 72.4283
91.956626 70.125 61.1674
92.622982 69.407 48.6664
93.294166 68.270 35.1080
93.970214 66.559 21.3410
94.651161 64.128 9.3907
95.337042 60.912 4.2925
96.027894 57.277 23.1089
96.723752 54.936 70.9116
97.424652 55.186 86.2960
98.130631 56.266 86.8252
98.841726 57.051 83.4579
99.557974 57.390 78.5533
100.279412 57.290 72.9302
101.006078 56.763 67.7092
101.738010 55.893 64.4066
102.475245 54.855 63.6511
103.217823 53.812 64.5045
103.965782 52.831 66.3431
104.719161 52.010 69.5165
105.477999 51.507 72.4719
106.242336 51.279 71.4735
107.012212 51.038 64.5291
107.787666 50.561 51.3803
108.568740 49.961 30.4225
109.355474 49.802 -2.6026
110.147909 50.695 -45.0695
110.946086 52.450 -80.0982
111.750047 54.441 -103.5893
112.559834 56.316 -120.3242
113.375489 57.939 -133.8171
114.197055 59.269 -145.6379
115.024574 60.323 -156.1882
115.858089 61.139 -165.6711
116.697645 61.744 -174.1743
117.543284 62.186 178.5503
118.395051 62.538 172.5903
119.252990 62.862 167.6760
120.117147 63.208 163.6272
120.987565 63.635 160.3402
121.864291 64.185 157.2417
122.747370 64.830 153.4502
123.636848 65.483 148.4882
124.532771 66.051 142.4236
125.435187 66.473 135.7168
126.344142 66.751 129.2607
127.259684 66.971 123.6897
128.181860 67.225 118.7117
129.110718 67.554 113.7874
130.046308 67.970 108.6014
130.988677 68.439 102.3955
131.937875 68.845 94.5175
132.893951 69.073 85.5251
133.856956 69.118 76.6847
134.826938 69.078 68.5261
135.803950 69.018 60.2422
136.788041 68.865 50.7312
137.779264 68.449 40.1102
138.777669 67.651 29.9742
139.783309 66.490 22.2766
140.796237 65.120 18.3601
141.816504 63.825 19.2180
142.844165 63.009 23.8103
143.879273 62.864 27.7139
144.921881 63.126 28.0073
145.972045 63.406 25.0621
147.029819 63.507 20.9796
148.095257 63.446 17.3668
149.168417 63.296 14.3884
150.249353 63.111 12.0902
151.338121 62.993 11.2310
152.434780 63.156 12.4449
153.539385 63.754 13.6401
154.651995 64.553 10.5439
155.772667 65.133 2.9802
156.901460 65.288 -6.0734
158.038432 65.051 -14.2274
159.183644 64.594 -20.0348
160.337154 64.159 -23.5165
161.499023 63.871 -27.0817
162.669312 63.574 -32.8231
163.848081 63.006 -39.8966
165.035392 62.054 -45.5216
166.231306 60.872 -46.6854
167.435887 59.844 -43.3054
168.649196 59.242 -39.6213
169.871298 58.931 -38.5466
171.102255 58.701 -38.0276
172.342133 58.679 -35.2026
173.590995 59.030 -33.3685
174.848907 59.465 -37.3315
176.115934 59.532 -46.1469
177.392143 58.979 -56.7522
178.677599 57.792 -66.0669
179.972371 56.193 -73.0951
181.276525 54.620 -82.9761
182.590129 53.803 -107.9905
183.913252 54.764 178.9614
185.245964 57.087 109.6615
186.588332 59.324 76.9739
187.940428 60.891 53.8267
189.302322 61.827 35.9136
190.674085 62.311 21.4269
192.055788 62.385 8.1237
193.447503 61.980 -4.2314
194.849303 61.118 -13.8672
196.261262 59.928 -20.9945
197.683452 58.425 -27.5416
199.115948 56.763 -23.8594
200.558824 56.132 9.2437
202.012156 56.863 18.2902
203.476019 57.319 7.7773
204.950490 56.795 -4.4886
206.435646 55.946 -8.5522
207.931564 56.923 57.5251
209.438322 59.761 85.1251
210.955998 62.355 73.9934
212.484672 64.098 59.3105
214.024424 65.193 46.6998
215.575333 66.003 37.2135
217.137481 66.677 27.7983
218.710948 67.089 16.6018
220.295818 67.138 4.9023
221.892172 66.795 -7.3364
223.500094 65.900 -20.5817
225.119668 64.262 -31.5895
226.750978 61.919 -34.9402
228.394109 59.390 -24.5197
230.049147 58.177 8.4299
231.716178 59.269 32.5486
233.395289 61.139 36.5593
235.086567 62.729 34.0061
236.790102 63.864 29.1002
238.505980 64.641 24.1667
240.234293 65.416 23.0360
241.975130 66.567 24.5459
243.728581 67.887 20.8907
245.494739 68.966 12.4775
247.273695 69.673 2.5784
249.065542 70.042 -7.4091
250.870374 70.160 -16.6835
252.688284 70.138 -25.0088
254.519367 70.027 -33.3462
256.363720 69.760 -42.5187
258.221437 69.255 -51.5116
260.092616 68.508 -59.6636
261.977354 67.490 -67.2881
263.875750 66.143 -73.0590
265.787903 64.709 -71.1168
267.713911 64.186 -55.7155
269.653877 65.071 -45.6021
271.607900 66.180 -51.4955
273.576083 66.658 -63.1243
275.558528 66.487 -73.3716
277.555338 66.022 -79.6040
279.566619 65.633 -84.1451
281.592474 65.264 -92.4038
283.633009 64.440 -105.4075
285.688331 62.876 -116.8522
287.758546 61.417 -99.4589
289.843763 61.948 -50.4315
291.944090 63.506 -56.3054
294.059638 64.326 -73.1661
296.190515 64.022 -89.3105
298.336833 62.784 -98.5177
300.498705 61.376 -92.1251
302.676243 61.129 -73.4755
304.869559 62.010 -68.3483
307.078770 62.926 -72.2451
309.303989 63.853 -72.4432
311.545334 65.262 -68.8043
313.802919 66.903 -71.8776
316.076865 68.235 -81.9360
318.367288 69.103 -94.0674
320.674309 69.610 -106.0800
322.998047 69.842 -118.2250
325.338624 69.808 -130.5775
327.696162 69.573 -141.7107
330.070783 69.289 -151.8268
332.462612 68.916 -163.7521
334.871773 68.205 -176.9896
337.298392 67.087 172.5072
339.742595 65.907 167.9197
342.204510 65.255 166.9159
344.684265 65.251 161.9500
347.181989 65.395 151.7822
349.697813 65.320 139.5048
352.231868 65.002 127.6511
354.784285 64.611 117.1617
357.355198 64.380 108.1537
359.944741 64.376 97.7853
362.553049 64.320 84.0524
365.180258 64.017 70.3470
367.826505 63.598 58.4501
370.491927 63.108 45.4569
373.176665 62.299 31.4374
375.880856 61.076 21.0562
378.604644 59.636 14.0791
381.348169 58.216 11.2004
384.111575 57.535 20.0001
386.895006 58.337 31.8765
389.698607 59.655 27.1013
392.522524 60.501 15.0112
395.366904 60.928 4.3953
398.231895 61.082 -7.3644
401.117648 60.876 -19.5645
404.024312 60.601 -26.0857
406.952038 60.665 -32.8668
409.900981 60.905 -43.9751
412.871292 61.204 -56.5704
415.863128 61.343 -74.1951
418.876643 60.869 -96.2993
421.911996 59.510 -116.6196
424.969344 57.563 -127.8604
428.048847 55.762 -136.5786
431.150666 54.344 -148.6118
434.274961 53.625 -154.0415
437.421897 54.777 -137.8462
440.591636 56.941 -140.1646
443.784345 58.371 -164.2214
447.000189 58.902 172.7795
450.239337 59.449 159.8748
453.501956 60.376 144.9175
456.788219 61.040 124.2681
460.098294 61.211 104.0420
463.432356 60.962 85.1526
466.790578 60.448 69.9246
470.173135 60.068 59.0413
473.580203 59.801 44.2671
477.011961 59.039 26.3064
480.468586 57.564 12.9312
483.950259 55.809 9.7983
487.457163 54.521 8.2043
490.989478 54.232 9.1743
494.547390 55.497 21.8105
498.131084 57.124 10.5386
501.740748 57.604 -19.8457
505.376568 56.751 -56.6572
509.038735 55.210 -106.9404
512.727439 53.948 154.7053
516.442874 53.143 83.9470
520.185232 51.924 49.5684
523.954708 50.268 45.8293
527.751500 49.399 53.6187
531.575805 49.974 56.0261
535.427822 52.052 66.3616
539.307753 54.708 73.5977
543.215800 56.505 56.1855
547.152165 56.793 29.6592
551.117055 55.666 5.4226
555.110677 53.610 -17.0078
559.133237 51.536 -46.6211
563.184947 51.166 131.8547
567.266018 52.071 98.8213
571.376661 52.889 80.8938
575.517092 54.508 95.0020
579.687526 57.034 100.6377
583.888181 59.013 83.0549
588.119275 59.915 59.9746
592.381030 59.667 35.3743
596.673667 58.295 14.9875
600.997410 57.169 36.8042
605.352485 58.383 84.6089
609.739119 60.314 69.4897
614.157540 61.723 49.9907
618.607979 62.461 27.6833
623.090667 62.046 1.2822
627.605839 60.637 -13.8188
632.153730 60.051 -4.1318
636.734576 61.069 -21.1396
641.348617 61.785 -68.8630
645.996094 61.449 -143.4448
650.677248 60.654 145.2810
655.392323 60.340 104.8345
660.141566 60.497 79.0837
664.925224 60.636 60.9851
669.743546 61.061 55.5737
674.596784 62.003 49.2749
679.485191 62.405 29.7749
684.409020 61.569 9.2891
689.368530 59.754 5.6609
694.363979 58.165 20.6174
699.395626 57.477 24.1133
704.463736 57.147 24.7070
709.568570 56.459 18.4849
714.710396 55.232 14.6145
719.889483 54.153 20.7029
725.106099 55.101 65.9373
730.360516 57.799 86.5278
735.653010 60.035 77.8831
740.983855 61.256 62.9412
746.353329 62.344 58.3242
751.761713 64.228 76.3364
757.209288 66.178 69.9707
762.696339 67.264 50.1975
768.223151 67.543 32.2026
773.790013 67.231 15.0798
779.397214 66.177 -0.4451
785.045047 64.855 5.5784
790.733808 64.828 24.2058
796.463791 65.650 17.6028
802.235296 66.031 5.8494
808.048623 66.109 -1.5764
813.904077 66.339 -7.1216
819.801961 66.631 -17.1123
825.742584 66.571 -32.0320
831.726255 65.524 -51.2275
837.753287 63.124 -59.4968
843.823992 60.167 -50.9087
849.938689 58.906 -38.5903
856.097695 60.902 42.7346
862.301332 63.416 46.0110
868.549922 64.950 27.7119
874.843793 66.288 18.9656
881.183272 68.058 12.5200
887.568689 69.653 -1.9771
894.000378 70.522 -21.9802
900.478673 70.509 -43.5952
907.003913 69.658 -63.8135
913.576437 68.208 -80.1958
920.196588 66.555 -94.4390
926.864712 64.871 -112.3699
933.581156 62.834 -137.8103
940.346270 60.355 -174.5415
947.160407 58.651 108.8279
954.023921 58.785 49.6753
960.937172 60.247 30.7488
967.900519 62.069 23.3154
974.914325 63.074 4.4788
981.978956 62.930 -11.2585
989.094780 62.697 -11.1487
996.262169 63.575 -6.0039
1003.481495 65.116 -9.7344
1010.753136 66.638 -18.6313
1018.077470 67.697 -33.3813
1025.454879 67.794 -53.0325
1032.885748 66.730 -70.3767
1040.370463 64.871 -78.7571
1047.909417 63.038 -77.1003
1055.503000 62.174 -69.9177
1063.151610 62.234 -70.9883
1070.855645 62.095 -81.4609
1078.615506 61.158 -92.7056
1086.431599 60.150 -84.4597
1094.304330 61.216 -53.8123
1102.234110 63.113 -58.7329
1110.221353 63.549 -81.8066
1118.266475 62.300 -98.8767
1126.369895 60.893 -89.3635
1134.532035 61.067 -74.9382
1142.753322 61.590 -85.6240
1151.034184 61.813 -93.4077
1159.375052 61.921 -106.9131
1167.776361 61.330 -127.7708
1176.238550 59.968 -150.0500
1184.762060 58.555 -152.8909
1193.347334 58.558 -98.1138
1201.994821 59.423 -121.9683
1210.704971 59.694 -162.6257
1219.478238 58.542 148.9526
1228.315080 56.334 108.2874
1237.215957 55.174 82.2000
1246.181334 56.159 60.0374
1255.211678 58.073 43.3472
1264.307459 60.600 35.6411
1273.469152 62.967 23.2207
1282.697235 64.364 1.4949
1291.992188 65.088 -15.4033
1301.354495 65.883 -27.9614
1310.784647 66.548 -44.5664
1320.283132 66.792 -61.3933
1329.850448 66.671 -78.5071
1339.487093 65.946 -96.4978
1349.193569 64.617 -109.9380
1358.970381 63.235 -118.5972
1368.818041 62.468 -124.6873
1378.737061 62.296 -140.7095
1388.727958 61.776 -169.3057
1398.791253 61.410 174.1501
1408.927471 61.568 -76.5842
1419.137140 61.041 -104.4827
1429.420793 60.690 -118.9778
1439.778965 61.110 -155.0654
1450.212197 61.005 113.8835
1460.721033 60.420 -16.9746
1471.306019 60.255 -66.4482
1481.967709 60.610 -113.1973
1492.706658 61.300 153.3496
1503.523426 62.376 28.3032
1514.418576 62.747 -21.9692
1525.392678 61.810 -50.8530
1536.446302 61.194 -38.5171
1547.580025 62.900 -29.8525
1558.794428 65.266 -43.2974
1570.090095 67.156 -62.1162
1581.467615 68.305 -84.3755
1592.927581 68.472 -108.0400
1604.470591 67.921 -125.8203
1616.097246 67.315 -142.1973
1627.808153 66.456 -160.5376
1639.603922 65.576 -174.9072
1651.485168 64.747 161.5552
1663.452510 63.048 128.6372
1675.506573 61.133 83.0210
1687.647984 61.175 4.4536
1699.877377 62.507 -57.3633
1712.195390 63.091 -97.8149
1724.602663 63.491 -122.7417
1737.099845 64.183 -149.7920
1749.687587 63.697 174.1235
1762.366544 61.941 152.0054
1775.137379 61.271 -32.1494
1788.000756 62.366 -63.0415
1800.957346 63.678 -92.4785
1814.007826 64.438 -118.2856
1827.152874 64.351 -140.8394
1840.393177 63.556 -158.6572
1853.729425 62.453 -161.8452
1867.162312 61.888 -163.5845
1880.692540 61.913 -165.2881
1894.320813 62.943 -153.4087
1908.047843 63.867 -166.8403
1921.874344 63.692 172.1221
1935.801038 62.845 153.3408
1949.828650 61.615 148.7715
1963.957912 61.170 -157.5352
1978.189561 62.357 -156.6572
1992.524338 63.508 -171.6865
2006.962991 64.008 174.6870
2021.506272 64.455 163.3828
2036.154940 64.508 145.8198
2050.909758 63.821 130.9321
2065.771495 62.955 114.8398
2080.740927 62.431 96.0073
2095.818833 63.487 -143.2861
2111.006001 65.397 -168.6333
2126.303220 66.192 161.5366
2141.711290 65.529 139.6626
2157.231013 64.540 137.9272
2172.863198 64.055 132.9219
2188.608660 63.320 122.4551
2204.468221 63.054 134.6821
2220.442706 64.479 145.0552
2236.532950 66.109 134.6763
2252.739789 67.057 118.2319
2269.064070 67.188 100.5488
2285.506644 66.503 84.4473
2302.068367 65.429 76.3970
2318.750104 64.710 74.7275
2335.552723 63.818 62.9482
2352.477101 62.148 53.6367
2369.524119 60.256 52.1392
2386.694668 59.161 60.5181
2403.989641 58.956 60.5645
2421.409941 59.125 84.7051
2438.956476 60.723 107.5625
2456.630160 62.510 91.4043
2474.431915 63.139 65.8916
2492.362668 62.910 48.2100
2510.423356 63.026 94.3169
2528.614918 63.648 90.3721
2546.938304 64.060 67.3828
2565.394469 64.155 47.8975
2583.984375 63.685 25.2129
2602.708991 62.129 1.3867
2621.569293 59.852 -18.4165
2640.566265 57.858 -27.0840
2659.700897 56.864 -47.0352
2678.974186 56.607 -110.0347
2698.387137 57.973 -162.6826
2717.940763 60.357 165.5903
2737.636082 61.604 124.9282
2757.474121 61.234 86.1538
2777.455915 60.563 57.7085
2797.582506 61.607 154.9526
2817.854942 63.611 132.0049
2838.274281 64.601 91.2710
2858.841586 63.551 52.8267
2879.557931 61.240 41.2803
2900.424394 59.306 115.3247
2921.442065 58.273 115.2700
2942.612039 58.703 107.4966
2963.935418 60.091 107.2529
2985.413316 61.508 147.5698
3007.046852 62.627 138.0610
3028.837153 63.114 115.7236
3050.785356 62.658 100.5679
3072.892604 62.068 94.6587
3095.160050 62.035 91.8237
3117.588856 62.348 85.1538
3140.180190 62.668 77.7007
3162.935230 62.537 65.6577
3185.855163 61.305 55.1807
3208.941182 59.725 62.3501
3232.194493 59.410 78.5029
3255.616307 60.071 80.1250
3279.207844 60.327 74.3179
3302.970336 60.358 72.1206
3326.905021 60.882 74.0864
3351.013146 61.546 67.4106
3375.295969 61.484 56.4175
3399.754755 61.059 54.5864
3424.390779 61.163 53.8813
3449.205326 61.137 43.2583
3474.199690 60.294 33.0522
3499.375173 58.963 28.5171
3524.733088 57.854 45.1504
3550.274757 57.225 52.0732
3576.001511 56.646 51.2451
3601.914692 57.122 71.9629
3628.015651 58.694 77.9844
3654.305748 59.549 62.6069
3680.786354 59.230 50.5586
3707.458849 58.586 54.8208
3734.324624 58.215 51.4727
3761.385080 57.887 43.3257
3788.641627 58.031 78.4536
3816.095686 59.338 102.1479
3843.748688 60.652 88.0645
3871.602076 61.192 79.8091
3899.657300 61.698 84.8911
3927.915825 62.414 77.6694
3956.379122 62.644 67.6963
3985.048676 62.275 56.4785
4013.925981 61.211 48.7959
4043.012544 60.359 54.2544
4072.309879 60.369 60.1118
4101.819515 60.876 61.7915
4131.542990 61.449 58.4390
4161.481854 62.082 60.6377
4191.637667 62.773 54.0674
4222.012001 62.635 41.9810
4252.606441 62.041 35.9722
4283.422580 61.481 29.8120
4314.462026 60.787 24.7812
4345.726396 59.851 20.7515
4377.217321 58.925 23.5918
4408.936442 58.748 31.2656
4440.885413 58.835 30.8340
4473.065899 58.425 32.8560
4505.479579 58.713 46.1250
4538.128141 59.521 38.2168
4571.013288 59.187 22.3540
4604.136735 57.742 20.9009
4637.500207 56.692 30.0537
4671.105446 56.587 31.1455
4704.954201 56.835 45.3374
4739.048239 57.281 58.9351
4773.389336 57.854 56.0605
4807.979283 58.217 48.2959
4842.819883 58.296 41.2778
4877.912952 58.037 37.5811
4913.260320 57.651 39.4521
4948.863830 57.337 39.7905
4984.725337 57.244 53.5562
5020.846712 57.866 59.9658
5057.229836 58.675 54.8862
5093.876609 58.911 43.8413
5130.788938 58.606 36.7954
5167.968750 58.935 47.0347
5205.417982 59.843 48.6328
5243.138586 59.737 35.5015
5281.132530 59.093 47.8628
5319.401793 59.351 55.5640
5357.948371 59.795 46.4468
5396.774274 60.084 40.1719
5435.881525 60.230 31.6792
5475.272163 59.693 18.3242
5514.948243 58.593 18.4907
5554.911831 58.187 44.6597
5595.165012 58.899 48.0854
5635.709884 59.526 38.9414
5676.548561 59.458 29.7861
5717.683172 59.116 23.2734
5759.115861 58.563 14.0029
5800.848789 57.521 17.6851
5842.884130 56.789 46.5850
5885.224077 57.101 49.8906
5927.870837 57.695 44.8823
5970.826633 58.063 41.4023
6014.093704 58.299 35.6865
6057.674306 58.353 35.8501
6101.570711 58.872 54.6289
6145.785208 59.464 50.0229
6190.320101 59.900 49.4526
6235.177712 60.843 49.6348
6280.360380 61.278 39.5850
6325.870460 61.093 35.6050
6371.710325 61.074 32.0869
6417.882365 61.117 25.5542
6464.388986 61.054 20.7148
6511.232613 61.102 18.9390
6558.415689 61.005 10.4253
6605.940673 60.295 0.5229
6653.810042 59.224 -1.8389
6702.026292 58.319 -1.9375
6750.591937 57.998 10.9893
6799.509509 58.298 15.3804
6848.781558 58.150 7.9165
6898.410653 57.369 10.4082
6948.399380 56.893 16.4072
6998.750346 57.379 35.9233
7049.466176 58.386 43.5400
7100.549514 58.809 32.9673
7152.003023 58.584 27.3633
7203.829385 58.707 32.4199
7256.031302 59.774 38.1279
7308.611496 61.213 37.3306
7361.572708 61.894 24.3462
7414.917698 61.626 13.2129
7468.649249 61.170 6.5225
7522.770160 60.660 5.8770
7577.283253 60.469 15.8955
7632.191371 60.458 10.9839
7687.497376 60.096 4.9077
7743.204151 59.517 -0.7031
7799.314600 58.764 -2.3325
7855.831649 58.469 8.1426
7912.758244 59.084 14.8906
7970.097352 59.927 11.4263
8027.851962 60.277 4.0200
8086.025087 60.287 8.3774
8144.619758 60.785 13.0298
8203.639030 61.399 9.1133
8263.085980 61.544 -1.8989
8322.963708 60.848 -10.1694
8383.275334 60.247 -5.9023
8444.024002 60.653 -3.0625
8505.212881 61.287 -9.5464
8566.845160 61.017 -23.0972
8628.924051 59.748 -31.8809
8691.452792 58.301 -28.7583
8754.434642 57.802 -16.1904
8817.872884 57.906 -13.6533
8881.770826 57.769 -15.6963
8946.131799 57.933 -9.7554
9010.959157 58.807 7.8970
9076.256282 59.619 3.8887
9142.026576 59.578 -8.4180
9208.273470 58.918 -16.1333
9275.000415 58.332 -13.9858
9342.210891 58.352 -15.1064
9409.908403 58.139 -22.2627
9478.096478 57.433 -23.2969
9546.778672 57.049 -9.0737
9615.958566 57.633 -2.8403
9685.639765 58.358 -7.4023
9755.825904 58.575 -11.5068
9826.520640 58.621 -7.5283
9897.727659 59.136 -7.8560
9969.450674 59.259 -19.4922
10041.693423 58.602 -28.4897
10114.459673 58.113 -17.2090
10187.753217 58.177 -15.0015
10261.577877 57.936 -19.1655
10335.937500 57.446 -17.0884
10410.835964 57.835 -7.1426
10486.277173 58.983 -7.3877
10562.265060 59.508 -17.1548
10638.803587 59.232 -17.7500
10715.896743 59.271 -17.2637
10793.548548 59.334 -27.2563
10871.763050 58.576 -38.8164
10950.544327 57.543 -39.9268
11029.896485 57.159 -31.5107
11109.823662 56.887 -32.5249
11190.330024 56.406 -22.4287
11271.419768 56.859 -5.8193
11353.097122 57.850 -10.5083
11435.366344 58.427 -18.6826
11518.231722 58.665 -21.2539
11601.697577 58.695 -26.0474
11685.768261 58.229 -36.2822
11770.448155 57.437 -40.2334
11855.741674 56.903 -39.8555
11941.653265 56.350 -42.7344
12028.187408 55.413 -42.7837
12115.348612 54.739 -28.7280
12203.141422 55.042 -23.1465
12291.570415 55.491 -24.8867
12380.640201 56.017 -24.5273
12470.355424 56.452 -28.3931
12560.720760 56.226 -35.2383
12651.740920 55.679 -30.9517
12743.420650 55.746 -26.2520
12835.764729 56.023 -27.0664
12928.777972 56.511 -22.8354
13022.465227 57.106 -26.9170
13116.831378 57.092 -35.4492
13211.881345 56.654 -37.9658
13307.620084 56.469 -35.6299
13404.052584 56.516 -37.0161
13501.183875 56.746 -36.0640
13599.019019 57.223 -35.9829
13697.563116 57.405 -41.6982
13796.821305 57.327 -45.1011
13896.798760 57.380 -49.0039
13997.500692 57.243 -56.3428
14098.932352 56.863 -60.0205
14201.099028 56.546 -63.7939
14304.006046 55.858 -69.9751
14407.658770 55.037 -66.2920
14512.062604 54.740 -65.0981
14617.222992 54.587 -67.3882
14723.145416 54.544 -67.7383
14829.835397 54.501 -72.5942
14937.298497 54.184 -77.9946
15045.540320 53.739 -82.6714
15154.566507 53.118 -88.5918
15264.382743 52.352 -89.7271
15374.994752 51.725 -91.3999
15486.408302 50.858 -95.6021
15598.629201 49.969 -93.6699
15711.663298 49.253 -96.5991
15825.516487 48.419 -96.2192
15940.194703 47.759 -97.1367
16055.703925 46.898 -99.8643
16172.050174 46.155 -87.9878
16289.239516 45.709 -86.8623
16407.278061 45.434 -77.8418
16526.171961 45.566 -77.8545
16645.927415 45.624 -75.0850
16766.550667 45.525 -62.0229
16888.048005 45.140 -47.6328
17010.425762 45.017 -34.1348
17133.690320 45.467 -35.4878
17257.848103 46.178 -27.9165
17382.905584 46.460 -27.2715
17508.869284 46.694 -23.1182
17635.745768 47.322 -25.8926
17763.541652 48.032 -24.0469
17892.263597 48.604 -26.6885
18021.918315 48.928 -32.5547
18152.512564 49.132 -39.7769
18284.053153 49.113 -44.3359
18416.546939 48.875 -48.7808
18550.000830 48.453 -53.3379
18684.421783 48.154 -56.8154
18819.816805 47.777 -63.2666
18956.192956 47.226 -68.6855
19093.557344 46.497 -75.2612
19231.917131 45.461 -81.3096
19371.279531 44.058 -86.3018
19511.651807 42.282 -88.9268
19653.041280 40.451 -88.8354
19795.455318 38.906 -84.5532
19938.901348 38.014 -76.8340
