* Measurement data measured by REW V5.31
* Source: Scarlett 2i4 USB, MICROPHONE, R, volume: no control. Timing signal peak level -35.9 dBFS, measurement signal peak level -26.0 dBFS
* Format: 512k Log Swept Sine, 1 sweep at -18.0 dBFS using an acoustic timing reference
* Dated: Apr 24, 2024 6:42:43 PM
* REW Settings:
*  C-weighting compensation: Off
*  Target level: 75.0 dB
* Note: ; Delay -0.0085 ms (-2.9 mm, -0.11 in) using estimated IR delay relative to Acoustic reference played from SPEAKER L with no timing offset
* Measurement: empty-p1-lrss
* Smoothing: 1/48 octave
* Frequency Step: 96 ppo
* Start Frequency: 10.093689 Hz
*
* Freq(Hz) SPL(dB) Phase(degrees)
10.093689 60.876 -65.7439
10.166832 60.959 -67.4441
10.240505 61.061 -69.1099
10.314712 61.167 -70.7466
10.389457 61.274 -72.3575
10.464743 61.385 -73.9412
10.540575 61.501 -75.4859
10.616956 61.622 -77.0045
10.693891 61.748 -78.5133
10.771383 61.878 -80.0277
10.849437 62.012 -81.5345
10.928057 62.152 -83.0285
11.007246 62.295 -84.5275
11.087009 62.441 -86.0499
11.167350 62.589 -87.6019
11.248273 62.742 -89.1677
11.329783 62.895 -90.7512
11.411883 63.048 -92.3595
11.494578 63.199 -94.0030
11.577873 63.350 -95.6826
11.661771 63.498 -97.3837
11.746277 63.643 -99.0938
11.831395 63.781 -100.8159
11.917130 63.915 -102.5726
12.003487 64.044 -104.3378
12.090469 64.166 -106.0831
12.178081 64.283 -107.8055
12.266329 64.392 -109.5358
12.355216 64.496 -111.2469
12.444747 64.597 -112.9076
12.534926 64.694 -114.5167
12.625760 64.787 -116.0950
12.717251 64.880 -117.6310
12.809406 64.975 -119.1093
12.902228 65.073 -120.5208
12.995723 65.174 -121.8850
13.089895 65.283 -123.2230
13.184750 65.403 -124.5340
13.280292 65.532 -125.7921
13.376526 65.671 -127.0457
13.473458 65.823 -128.3447
13.571093 65.988 -129.6537
13.669434 66.164 -130.9807
13.768489 66.349 -132.3837
13.868261 66.542 -133.8885
13.968756 66.744 -135.4534
14.069979 66.948 -137.1036
14.171936 67.151 -138.8710
14.274632 67.354 -140.7480
14.378072 67.553 -142.7121
14.482261 67.743 -144.7550
14.587206 67.924 -146.9084
14.692910 68.094 -149.1457
14.799381 68.251 -151.4163
14.906624 68.392 -153.7428
15.014643 68.518 -156.1372
15.123446 68.629 -158.5264
15.233036 68.724 -160.9042
15.343421 68.803 -163.3132
15.454606 68.868 -165.6865
15.566596 68.920 -167.9998
15.679398 68.958 -170.2985
15.793018 68.987 -172.5416
15.907460 69.009 -174.7065
16.022732 69.022 -176.8231
16.138840 69.032 -178.8829
16.255788 69.040 179.1248
16.373585 69.045 177.1859
16.492234 69.051 175.2847
16.611744 69.057 173.4228
16.732119 69.064 171.5946
16.853367 69.070 169.7809
16.975494 69.077 167.9790
17.098505 69.082 166.1918
17.222408 69.084 164.4157
17.347209 69.083 162.6425
17.472914 69.077 160.8921
17.599530 69.065 159.1714
17.727063 69.049 157.4731
17.855521 69.029 155.8248
17.984909 69.006 154.2301
18.115235 68.981 152.6827
18.246506 68.959 151.1924
18.378727 68.939 149.7632
18.511907 68.927 148.3569
18.646052 68.922 146.9815
18.781169 68.926 145.6151
18.917265 68.938 144.2015
19.054347 68.957 142.7592
19.192423 68.979 141.2448
19.331499 69.001 139.6332
19.471583 69.017 137.9460
19.612682 69.020 136.1728
19.754804 69.008 134.3080
19.897956 68.973 132.4378
20.042144 68.913 130.5175
20.187378 68.826 128.6561
20.333664 68.709 126.8889
20.481010 68.566 125.2379
20.629424 68.402 123.8298
20.778913 68.223 122.6456
20.929486 68.044 121.7568
21.081150 67.872 121.2025
21.233912 67.730 120.8912
21.387782 67.629 120.8776
21.542767 67.580 120.9648
21.698874 67.594 121.0963
21.856113 67.664 121.1317
22.014492 67.784 120.8984
22.174018 67.941 120.3942
22.334700 68.112 119.4771
22.496546 68.287 118.2105
22.659566 68.441 116.5878
22.823766 68.569 114.6480
22.989157 68.654 112.5149
23.155745 68.695 110.1770
23.323542 68.684 107.8291
23.492554 68.624 105.4327
23.662790 68.518 103.1881
23.834261 68.369 101.0619
24.006973 68.189 99.2031
24.180938 67.987 97.5947
24.356163 67.778 96.2905
24.532658 67.574 95.2708
24.710431 67.390 94.4796
24.889493 67.231 93.8693
25.069853 67.104 93.3215
25.251519 67.002 92.7779
25.434502 66.921 92.1436
25.618811 66.846 91.4163
25.804456 66.766 90.5619
25.991445 66.670 89.6799
26.179790 66.552 88.7821
26.369500 66.413 88.0285
26.560584 66.258 87.4444
26.753053 66.104 87.1530
26.946917 65.968 87.1143
27.142185 65.871 87.3496
27.338869 65.831 87.6484
27.536977 65.852 87.9428
27.736522 65.928 87.9442
27.937512 66.040 87.5983
28.139959 66.162 86.7657
28.343872 66.264 85.5143
28.549264 66.326 83.8550
28.756143 66.327 81.9806
28.964522 66.261 80.0033
29.174411 66.127 78.0708
29.385821 65.936 76.3745
29.598763 65.703 74.9633
29.813248 65.451 73.9412
30.029287 65.203 73.2162
30.246891 64.974 72.7521
30.466073 64.771 72.3244
30.686842 64.580 71.8334
30.909212 64.382 71.1773
31.133193 64.145 70.3743
31.358797 63.843 69.5937
31.586035 63.460 69.0006
31.814921 62.993 69.0274
32.045465 62.476 69.9839
32.277680 61.958 72.2185
32.511577 61.544 75.8672
32.747169 61.332 80.5197
32.984469 61.374 85.5072
33.223488 61.660 89.8562
33.464239 62.090 92.9831
33.706735 62.576 94.8799
33.950987 63.045 95.7336
34.197010 63.458 95.9835
34.444816 63.822 95.9761
34.694417 64.155 95.9119
34.945827 64.492 95.9212
35.199059 64.866 95.8982
35.454126 65.288 95.6082
35.711041 65.752 94.8433
35.969818 66.230 93.4105
36.230470 66.683 91.2097
36.493011 67.074 88.3381
36.757455 67.377 84.9450
37.023814 67.574 81.2001
37.292104 67.658 77.3333
37.562338 67.634 73.5940
37.834530 67.519 70.1405
38.108695 67.335 67.0878
38.384846 67.108 64.5017
38.662999 66.865 62.3632
38.943167 66.623 60.5562
39.225365 66.387 58.9580
39.509608 66.153 57.4858
39.795911 65.913 56.1086
40.084289 65.659 54.8506
40.374756 65.391 53.7690
40.667328 65.115 52.9021
40.962020 64.841 52.2268
41.258848 64.570 51.6822
41.557827 64.295 51.2258
41.858972 64.002 50.8882
42.162299 63.682 50.8033
42.467824 63.343 51.1905
42.775564 63.014 52.2706
43.085533 62.751 54.1180
43.397749 62.613 56.5167
43.712227 62.632 58.9636
44.028983 62.791 60.9037
44.348036 63.031 61.9991
44.669400 63.291 62.2133
44.993093 63.521 61.7205
45.319131 63.696 60.7717
45.647532 63.810 59.6021
45.978313 63.868 58.3920
46.311491 63.883 57.2647
46.647083 63.868 56.2951
46.985107 63.839 55.5150
47.325581 63.810 54.9107
47.668521 63.792 54.4253
48.013947 63.788 53.9843
48.361876 63.794 53.5433
48.712326 63.804 53.1290
49.065315 63.821 52.8344
49.420863 63.864 52.7535
49.778987 63.960 52.8822
50.139706 64.138 53.0561
50.503039 64.406 52.9971
50.869005 64.752 52.4429
51.237623 65.152 51.2525
51.608912 65.586 49.3922
51.982891 66.043 46.8272
52.359580 66.515 43.4310
52.739000 66.977 39.0014
53.121168 67.385 33.3735
53.506106 67.680 26.5370
53.893833 67.801 18.6560
54.284370 67.701 10.0487
54.677737 67.346 1.1603
55.073955 66.724 -7.4838
55.473043 65.845 -15.3191
55.875024 64.746 -21.8048
56.279917 63.495 -26.4980
56.687745 62.181 -29.1770
57.098527 60.905 -29.9489
57.512287 59.755 -29.1412
57.929045 58.804 -27.1245
58.348822 58.119 -24.3811
58.771642 57.738 -21.7181
59.197525 57.623 -20.0310
59.626495 57.679 -19.7854
60.058573 57.813 -20.9028
60.493782 57.974 -23.0804
60.932145 58.153 -26.1499
61.373685 58.345 -30.1511
61.818424 58.526 -35.1666
62.266386 58.659 -41.1229
62.717593 58.718 -47.7802
63.172071 58.697 -54.7949
63.629842 58.615 -61.8344
64.090930 58.500 -68.6792
64.555359 58.388 -75.1694
65.023154 58.314 -81.2054
65.494339 58.312 -86.7662
65.968938 58.408 -91.9578
66.446976 58.605 -96.9637
66.928478 58.882 -101.9426
67.413469 59.210 -106.9052
67.901975 59.574 -111.7509
68.394021 59.971 -116.4283
68.889632 60.403 -121.0317
69.388835 60.850 -125.7297
69.891655 61.283 -130.5637
70.398118 61.683 -135.3913
70.908252 62.052 -140.0582
71.422083 62.401 -144.5911
71.939636 62.716 -149.1904
72.460941 62.951 -153.9053
72.986023 63.067 -158.2892
73.514909 63.100 -161.3813
74.047629 63.209 -162.4098
74.584208 63.598 -161.7972
75.124676 64.325 -161.6087
75.669061 65.226 -163.5870
76.217390 66.074 -167.9832
76.769692 66.724 -173.9505
77.325997 67.129 179.5077
77.886333 67.311 173.3499
78.450730 67.348 168.1785
79.019216 67.339 164.0704
79.591822 67.340 160.4659
80.168577 67.327 156.8804
80.749512 67.255 153.5333
81.334656 67.150 151.1432
81.924040 67.115 149.8934
82.517696 67.220 149.0483
83.115653 67.446 147.8605
83.717943 67.750 146.3366
84.324598 68.142 144.6379
84.935649 68.627 142.3523
85.551128 69.156 138.9088
86.171066 69.648 134.2104
86.795497 70.048 128.5881
87.424453 70.343 122.4220
88.057967 70.543 115.9583
88.696071 70.673 109.2687
89.338800 70.748 102.2081
89.986185 70.759 94.5057
90.638262 70.669 85.9897
91.295065 70.434 76.6404
91.956626 70.010 66.3776
92.622982 69.325 54.9872
93.294166 68.248 42.4951
93.970214 66.606 29.7590
94.651161 64.234 19.2254
95.337042 61.119 17.6225
96.027894 57.946 44.7884
96.723752 56.693 82.6050
97.424652 57.518 90.8420
98.130631 58.589 88.9718
98.841726 59.273 84.3779
99.557974 59.555 78.7203
100.279412 59.470 72.3959
101.006078 59.020 65.9752
101.738010 58.227 60.4860
102.475245 57.174 56.6743
103.217823 55.949 54.5124
103.965782 54.612 54.1915
104.719161 53.290 56.7151
105.477999 52.252 61.3420
106.242336 51.638 63.6453
107.012212 51.197 60.3470
107.787666 50.588 51.3650
108.568740 49.743 36.1246
109.355474 49.022 10.6171
110.147909 49.182 -29.8551
110.946086 50.576 -71.6519
111.750047 52.626 -99.5435
112.559834 54.718 -117.7932
113.375489 56.573 -131.7220
114.197055 58.104 -143.6743
115.024574 59.325 -154.2355
115.858089 60.283 -163.6062
116.697645 61.018 -171.8948
117.543284 61.585 -178.9158
118.395051 62.059 175.3396
119.252990 62.495 170.5264
120.117147 62.934 166.4950
120.987565 63.436 163.2476
121.864291 64.048 160.1896
122.747370 64.741 156.3845
123.636848 65.427 151.4426
124.532771 66.028 145.5013
125.435187 66.494 138.9822
126.344142 66.836 132.6748
127.259684 67.128 127.0466
128.181860 67.437 121.6990
129.110718 67.775 116.2264
130.046308 68.150 110.6199
130.988677 68.555 104.3102
131.937875 68.893 96.5417
132.893951 69.049 87.7684
133.856956 69.021 79.4016
134.826938 68.940 72.2253
135.803950 68.937 65.3806
136.788041 68.965 56.9766
137.779264 68.792 46.2559
138.777669 68.193 34.7893
139.783309 67.115 25.1686
140.796237 65.687 19.4312
141.816504 64.187 18.9957
142.844165 63.059 23.4176
143.879273 62.647 28.6562
144.921881 62.816 30.7319
145.972045 63.121 28.6306
147.029819 63.235 24.3827
148.095257 63.101 20.4202
149.168417 62.811 17.7427
150.249353 62.506 16.8359
151.338121 62.400 18.1155
152.434780 62.735 20.9692
153.539385 63.534 22.2344
154.651995 64.434 18.2919
155.772667 65.015 10.0334
156.901460 65.117 0.7356
158.038432 64.813 -7.0945
159.183644 64.324 -11.9136
160.337154 63.955 -13.9114
161.499023 63.866 -15.9824
162.669312 63.893 -20.7338
163.848081 63.733 -27.9496
165.035392 63.196 -35.6056
166.231306 62.302 -40.8597
167.435887 61.295 -42.2590
168.649196 60.446 -41.8240
169.871298 59.783 -42.2228
171.102255 59.185 -42.7501
172.342133 58.738 -40.9109
173.590995 58.664 -38.5139
174.848907 58.833 -40.5416
176.115934 58.824 -47.4373
177.392143 58.343 -56.5558
178.677599 57.386 -64.8646
179.972371 56.268 -71.6340
181.276525 55.511 -82.4585
182.590129 55.532 -106.8962
183.913252 56.547 -153.7856
185.245964 58.294 148.8950
186.588332 60.049 107.0322
187.940428 61.366 77.5685
189.302322 62.245 55.7448
190.674085 62.792 38.0126
192.055788 62.927 21.1622
193.447503 62.518 5.4166
194.849303 61.644 -7.3142
196.261262 60.540 -18.6665
197.683452 59.209 -34.2740
199.115948 57.407 -56.8020
200.558824 55.561 -113.2576
202.012156 55.174 96.7188
203.476019 56.123 77.3625
204.950490 57.071 65.8329
206.435646 57.874 61.9039
207.931564 59.343 71.9476
209.438322 61.540 80.1349
210.955998 63.498 74.0302
212.484672 64.765 62.8240
214.024424 65.540 53.6661
215.575333 66.236 47.7870
217.137481 66.952 40.7113
218.710948 67.438 30.4655
220.295818 67.513 19.1226
221.892172 67.132 7.4828
223.500094 66.160 -4.3955
225.119668 64.480 -11.5055
226.750978 62.414 -6.5503
228.394109 60.850 6.8689
230.049147 60.609 22.8679
231.716178 61.563 34.3904
233.395289 62.862 37.1288
235.086567 63.998 35.6490
236.790102 64.856 32.3589
238.505980 65.446 28.2933
240.234293 65.941 26.1852
241.975130 66.659 27.0508
243.728581 67.574 24.8223
245.494739 68.370 18.7965
247.273695 68.962 12.2561
249.065542 69.407 5.4963
250.870374 69.701 -2.0822
252.688284 69.806 -10.2515
254.519367 69.706 -18.5376
256.363720 69.380 -27.0315
258.221437 68.802 -35.0360
260.092616 67.960 -42.3281
261.977354 66.805 -48.5149
263.875750 65.400 -50.2419
265.787903 64.325 -42.0114
267.713911 64.530 -27.1090
269.653877 65.676 -23.9685
271.607900 66.516 -33.4849
273.576083 66.474 -46.2970
275.558528 65.667 -54.5640
277.555338 64.793 -52.6331
279.566619 64.720 -46.7162
281.592474 65.117 -52.4551
283.633009 64.915 -68.5444
285.688331 64.034 -78.3943
287.758546 64.183 -15.4871
289.843763 65.963 -5.1206
291.944090 67.551 -22.2161
294.059638 68.144 -41.2916
296.190515 67.738 -57.2269
298.336833 66.634 -65.9370
300.498705 65.492 -64.2010
302.676243 65.180 -55.3983
304.869559 65.695 -52.8486
307.078770 66.256 -57.3207
309.303989 66.771 -58.8469
311.545334 67.718 -55.8378
313.802919 68.966 -58.8646
316.076865 70.004 -67.9203
318.367288 70.700 -78.1482
320.674309 71.140 -88.5945
322.998047 71.338 -99.8833
325.338624 71.258 -111.5771
327.696162 70.941 -122.2788
330.070783 70.517 -131.8616
332.462612 70.008 -142.1760
334.871773 69.278 -153.2163
337.298392 68.295 -162.1084
339.742595 67.361 -166.3960
342.204510 66.847 -170.2700
344.684265 66.625 -178.3267
347.181989 66.378 171.5737
349.697813 66.049 161.3247
352.231868 65.798 152.0547
354.784285 65.826 142.2847
357.355198 66.057 129.2722
359.944741 66.171 112.2219
362.553049 65.816 92.4966
365.180258 64.863 74.4924
367.826505 63.537 61.5237
370.491927 62.214 52.4382
373.176665 61.148 46.1223
375.880856 60.499 42.9717
378.604644 60.140 36.9734
381.348169 59.752 30.5173
384.111575 59.744 32.6506
386.895006 60.779 40.1042
389.698607 62.187 35.1812
392.522524 63.077 22.1572
395.366904 63.450 10.4434
398.231895 63.628 0.8291
401.117648 63.788 -8.2290
404.024312 64.052 -15.9700
406.952038 64.335 -26.7146
409.900981 64.275 -40.8059
412.871292 63.878 -53.0132
415.863128 63.378 -64.6375
418.876643 62.654 -79.2466
421.911996 61.452 -91.5076
424.969344 60.252 -92.8772
428.048847 59.639 -99.9290
431.150666 58.911 -116.6411
434.274961 57.860 -125.5281
437.421897 57.890 -115.2478
440.591636 59.091 -124.0925
443.784345 59.721 -151.4590
447.000189 59.143 -179.7832
450.239337 57.844 162.0408
453.501956 56.992 150.7275
456.788219 57.188 139.0105
460.098294 58.062 125.4670
463.432356 59.137 110.2800
466.790578 60.397 96.9680
470.173135 61.709 82.0786
473.580203 62.561 62.3125
477.011961 62.668 42.0730
480.468586 62.229 27.5195
483.950259 62.000 24.1091
487.457163 62.371 17.5063
490.989478 62.782 5.1538
494.547390 63.289 -3.9370
498.131084 64.175 -13.1230
501.740748 64.853 -32.0457
505.376568 64.620 -57.4629
509.038735 63.328 -84.5828
512.727439 60.991 -112.1638
516.442874 57.818 -121.7776
520.185232 55.071 -6.1455
523.954708 54.275 -17.9038
527.751500 54.295 -31.2295
531.575805 53.980 -36.7434
535.427822 53.918 -32.2461
539.307753 54.883 -26.7732
543.215800 56.751 -20.3525
547.152165 58.390 -32.1860
551.117055 59.312 -49.4390
555.110677 59.846 -67.8628
559.133237 59.756 -93.7632
563.184947 58.551 -122.2231
567.266018 56.231 -139.5796
571.376661 54.032 -139.5867
575.517092 54.471 -142.1006
579.687526 57.163 -159.6912
583.888181 59.622 156.7078
588.119275 61.086 102.9009
592.381030 61.506 46.4521
596.673667 60.830 -13.1685
600.997410 59.486 -94.4070
605.352485 58.874 140.6257
609.739119 59.338 82.3494
614.157540 60.049 45.1399
618.607979 60.578 11.5872
623.090667 60.403 -23.8792
627.605839 60.035 -50.4412
632.153730 61.107 -11.8735
636.734576 63.050 -31.0854
641.348617 63.990 -82.7954
645.996094 63.278 -140.0823
650.677248 61.395 172.4417
655.392323 60.306 139.9392
660.141566 60.873 107.6875
664.925224 61.680 77.1003
669.743546 62.455 56.7827
674.596784 63.711 43.8997
679.485191 64.498 17.5220
684.409020 63.918 -12.5474
689.368530 62.132 -34.9023
694.363979 59.884 -46.9446
699.395626 58.076 -57.7441
704.463736 57.061 -69.3105
709.568570 56.542 -90.7615
714.710396 55.989 -121.4199
719.889483 55.695 -158.1482
725.106099 55.877 169.5723
730.360516 57.203 171.2288
735.653010 59.107 155.8093
740.983855 60.804 130.5857
746.353329 62.918 119.8311
751.761713 65.243 110.6912
757.209288 66.650 85.0596
762.696339 66.895 58.3152
768.223151 66.540 37.7681
773.790013 66.027 18.5361
779.397214 65.173 1.1748
785.045047 64.476 10.9180
790.733808 64.721 12.7690
796.463791 64.962 -7.1318
802.235296 64.277 -29.3574
808.048623 62.888 -39.7803
813.904077 62.209 -37.8281
819.801961 62.577 -52.9053
825.742584 63.008 -80.2148
831.726255 62.843 -118.6504
837.753287 61.812 -161.3843
843.823992 61.525 168.2837
849.938689 63.338 142.2715
856.097695 65.452 112.8101
862.301332 66.700 83.0483
868.549922 67.119 59.4175
874.843793 67.788 47.1191
881.183272 69.183 34.2500
887.568689 70.317 11.5786
894.000378 70.373 -16.5532
900.478673 69.350 -41.7388
907.003913 67.882 -63.6841
913.576437 66.278 -89.3677
920.196588 64.612 -119.4102
926.864712 63.718 -159.5947
933.581156 64.032 148.9082
940.346270 64.841 103.6562
947.160407 65.742 70.3071
954.023921 66.285 41.6782
960.937172 65.930 16.7871
967.900519 64.837 1.7397
974.914325 63.653 -9.5269
981.978956 62.528 -15.2598
989.094780 62.570 13.8188
996.262169 64.222 21.0181
1003.481495 66.097 12.8120
1010.753136 67.533 -1.5801
1018.077470 68.044 -21.9043
1025.454879 67.451 -42.3809
1032.885748 65.829 -56.5488
1040.370463 63.859 -57.5000
1047.909417 62.685 -49.5435
1055.503000 62.479 -52.6040
1063.151610 62.362 -63.5151
1070.855645 61.545 -80.3037
1078.615506 59.990 -94.5298
1086.431599 59.391 -45.2251
1094.304330 61.120 -17.5117
1102.234110 62.766 -43.1143
1110.221353 62.840 -77.8555
1118.266475 61.703 -111.9976
1126.369895 61.260 28.3525
1134.532035 61.976 0.8345
1142.753322 62.927 -15.8345
1151.034184 63.988 -30.7305
1159.375052 64.476 -51.1421
1167.776361 64.224 -73.3257
1176.238550 63.080 -93.6797
1184.762060 61.974 -61.6646
1193.347334 62.388 -54.0713
1201.994821 63.135 -83.0796
1210.704971 62.873 -123.4111
1219.478238 61.178 -177.1426
1228.315080 59.356 94.7686
1237.215957 59.871 50.3018
1246.181334 61.283 25.2114
1255.211678 61.752 0.4761
1264.307459 62.220 -5.0522
1273.469152 63.469 3.6294
1282.697235 64.391 -11.2227
1291.992188 64.708 -20.3071
1301.354495 65.304 -22.5127
1310.784647 65.914 -35.0615
1320.283132 66.358 -46.5171
1329.850448 66.607 -60.3906
1339.487093 66.027 -76.6714
1349.193569 64.811 -81.3159
1358.970381 64.284 -78.9580
1368.818041 64.689 -82.5347
1378.737061 64.920 -97.5381
1388.727958 64.237 -111.8721
1398.791253 63.898 -91.0923
1408.927471 64.512 -88.5884
1419.137140 64.305 -105.7861
1429.420793 63.644 -105.2529
1439.778965 63.291 -115.8320
1450.212197 62.821 -97.2710
1460.721033 62.900 -81.1157
1471.306019 63.357 -100.5171
1481.967709 63.507 -127.7417
1492.706658 62.535 -162.3521
1503.523426 61.138 -21.0938
1514.418576 60.614 -50.2212
1525.392678 60.318 -68.3589
1536.446302 60.692 -64.2817
1547.580025 62.542 -58.8750
1558.794428 64.753 -64.3955
1570.090095 66.538 -76.4639
1581.467615 67.718 -91.9097
1592.927581 68.366 -107.4863
1604.470591 68.721 -120.9307
1616.097246 68.935 -135.6460
1627.808153 68.756 -152.0796
1639.603922 68.320 -166.1904
1651.485168 67.634 177.8530
1663.452510 66.343 162.8994
1675.506573 64.586 147.1758
1687.647984 62.502 133.7563
1699.877377 60.857 159.4556
1712.195390 60.992 -165.4458
1724.602663 63.087 -159.7051
1737.099845 65.254 -178.0454
1749.687587 65.645 146.6475
1762.366544 64.277 113.5376
1775.137379 62.708 73.7778
1788.000756 61.662 -14.5269
1800.957346 61.366 -95.1909
1814.007826 61.867 -134.8379
1827.152874 62.095 -165.7334
1840.393177 61.615 168.4683
1853.729425 60.486 163.9126
1867.162312 59.584 169.9224
1880.692540 59.032 163.5142
1894.320813 59.304 168.8984
1908.047843 60.285 161.4844
1921.874344 61.180 142.9600
1935.801038 61.771 114.8779
1949.828650 61.268 73.3550
1963.957912 60.010 -42.9917
1978.189561 59.611 -152.4653
1992.524338 59.957 177.0435
2006.962991 60.423 157.6968
2021.506272 61.850 151.5566
2036.154940 63.341 127.8286
2050.909758 63.583 97.6484
2065.771495 63.544 61.3223
2080.740927 64.196 1.4048
2095.818833 64.998 -63.6230
2111.006001 65.585 -114.6226
2126.303220 65.303 -154.8379
2141.711290 64.332 -176.7007
2157.231013 64.276 177.4224
2172.863198 64.491 156.2886
2188.608660 63.509 131.8843
2204.468221 62.667 159.1499
2220.442706 63.650 -176.0195
2236.532950 64.546 164.1206
2252.739789 64.936 142.6772
2269.064070 64.745 120.0928
2285.506644 63.586 98.0342
2302.068367 61.632 85.7842
2318.750104 59.823 110.1875
2335.552723 59.343 148.2329
2352.477101 60.024 162.4570
2369.524119 61.316 154.6890
2386.694668 62.599 142.2896
2403.989641 63.139 130.6455
2421.409941 63.352 134.8228
2438.956476 64.128 130.7993
2456.630160 64.628 113.5137
2474.431915 64.238 97.0591
2492.362668 64.098 101.8818
2510.423356 65.141 122.2539
2528.614918 66.051 107.5337
2546.938304 66.116 86.6802
2565.394469 65.510 68.2173
2583.984375 64.225 49.1040
2602.708991 62.091 35.2461
2621.569293 59.888 59.1929
2640.566265 59.075 89.2510
2659.700897 59.523 86.2515
2678.974186 60.156 84.2847
2698.387137 60.501 79.9814
2717.940763 61.141 91.9746
2737.636082 62.267 90.4097
2757.474121 62.661 68.4683
2777.455915 62.157 45.2686
2797.582506 62.283 60.0249
2817.854942 64.104 116.1807
2838.274281 65.379 86.5186
2858.841586 64.538 55.4146
2879.557931 62.280 46.2842
2900.424394 60.609 67.0703
2921.442065 60.397 68.6021
2942.612039 61.355 61.6567
2963.935418 62.554 41.1938
2985.413316 62.627 12.9409
3007.046852 61.976 137.7573
3028.837153 61.748 110.6211
3050.785356 61.298 92.3608
3072.892604 61.093 87.0210
3095.160050 61.608 83.1460
3117.588856 62.331 76.8032
3140.180190 63.282 69.7026
3162.935230 63.819 52.4370
3185.855163 62.897 31.4321
3208.941182 60.696 22.1846
3232.194493 58.443 33.5210
3255.616307 57.522 57.5996
3279.207844 57.547 61.5073
3302.970336 57.633 60.4731
3326.905021 57.967 66.1831
3351.013146 58.562 64.2510
3375.295969 58.671 55.0181
3399.754755 58.538 55.2744
3424.390779 58.964 55.1914
3449.205326 59.309 41.5029
3474.199690 58.994 23.3037
3499.375173 58.172 6.8945
3524.733088 57.269 41.3721
3550.274757 56.485 62.1177
3576.001511 56.414 69.9814
3601.914692 57.941 125.7192
3628.015651 59.727 107.7710
3654.305748 60.178 79.5303
3680.786354 59.044 59.8589
3707.458849 57.295 64.4121
3734.324624 56.242 69.9321
3761.385080 56.259 75.1108
3788.641627 57.550 120.0967
3816.095686 59.476 122.4844
3843.748688 60.816 106.7983
3871.602076 61.636 101.9082
3899.657300 62.718 104.1499
3927.915825 63.561 90.9399
3956.379122 63.296 76.3198
3985.048676 62.413 69.8706
4013.925981 61.805 72.3823
4043.012544 61.980 74.4102
4072.309879 62.379 72.3569
4101.819515 62.956 74.9038
4131.542990 63.671 70.5981
4161.481854 64.454 68.1401
4191.637667 65.101 57.9238
4222.012001 64.799 44.5566
4252.606441 64.010 38.9702
4283.422580 63.361 34.6650
4314.462026 62.867 30.7827
4345.726396 62.218 24.4165
4377.217321 61.414 24.3130
4408.936442 61.448 31.5054
4440.885413 61.878 23.6113
4473.065899 61.275 13.2881
4505.479579 60.740 29.5127
4538.128141 61.305 30.6387
4571.013288 61.146 13.8774
4604.136735 59.830 7.5903
4637.500207 58.697 12.4565
4671.105446 58.263 7.3804
4704.954201 57.480 -0.5068
4739.048239 56.005 2.9478
4773.389336 54.872 26.1724
4807.979283 55.217 32.7930
4842.819883 55.889 21.0732
4877.912952 55.846 14.9312
4913.260320 55.799 37.6685
4948.863830 56.263 35.7363
4984.725337 56.637 91.4058
5020.846712 57.078 96.8037
5057.229836 57.411 81.7290
5093.876609 57.503 70.4688
5130.788938 57.922 69.2686
5167.968750 59.291 73.3579
5205.417982 60.436 60.9043
5243.138586 60.420 49.6777
5281.132530 60.427 82.0137
5319.401793 60.997 76.6860
5357.948371 61.061 62.8984
5396.774274 61.082 61.0020
5435.881525 61.281 53.1069
5475.272163 60.853 42.2671
5514.948243 60.335 49.0635
5554.911831 60.723 59.1230
5595.165012 61.674 57.3965
5635.709884 62.621 49.0630
5676.548561 63.017 35.8555
5717.683172 62.667 21.6201
5759.115861 61.597 9.4438
5800.848789 60.054 9.2104
5842.884130 59.086 22.2954
5885.224077 59.230 25.7056
5927.870837 59.432 18.2749
5970.826633 58.964 11.7910
6014.093704 58.425 9.6030
6057.674306 58.030 5.7090
6101.570711 57.710 35.8374
6145.785208 57.509 38.3501
6190.320101 57.560 40.8169
6235.177712 58.540 48.6143
6280.360380 59.162 41.3794
6325.870460 58.931 36.7080
6371.710325 58.582 36.2510
6417.882365 58.636 35.0151
6464.388986 58.685 31.9595
6511.232613 58.820 35.6675
6558.415689 59.019 32.9863
6605.940673 58.978 29.9800
6653.810042 59.009 35.3569
6702.026292 59.069 34.8955
6750.591937 59.515 48.7451
6799.509509 60.512 47.6670
6848.781558 60.966 36.6553
6898.410653 60.922 30.7783
6948.399380 60.766 25.4941
6998.750346 60.842 28.8740
7049.466176 61.389 31.3384
7100.549514 61.582 20.9956
7152.003023 61.101 13.3340
7203.829385 60.611 11.3760
7256.031302 60.580 16.9585
7308.611496 61.462 26.9648
7361.572708 62.223 15.8564
7414.917698 62.149 2.1338
7468.649249 61.748 -9.8569
7522.770160 60.826 -18.5498
7577.283253 59.523 -4.0386
7632.191371 58.589 0.9126
7687.497376 57.820 3.2310
7743.204151 56.921 1.8262
7799.314600 56.396 24.6841
7855.831649 57.372 44.0088
7912.758244 58.865 43.2383
7970.097352 59.933 35.1147
8027.851962 60.490 29.8003
8086.025087 61.174 32.5366
8144.619758 62.249 30.9780
8203.639030 63.165 23.4004
8263.085980 63.473 11.8286
8322.963708 63.254 1.5796
8383.275334 62.829 -4.1133
8444.024002 62.755 -6.4805
8505.212881 62.997 -13.0229
8566.845160 62.883 -23.8276
8628.924051 62.102 -35.3677
8691.452792 60.869 -42.7280
8754.434642 59.703 -41.6450
8817.872884 59.061 -28.5933
8881.770826 58.590 -38.6064
8946.131799 58.094 -42.0005
9010.959157 58.970 27.3179
9076.256282 59.849 20.8442
9142.026576 59.279 2.0874
9208.273470 58.150 -4.4062
9275.000415 57.763 7.7998
9342.210891 58.368 12.9214
9409.908403 58.868 11.0205
9478.096478 59.606 19.0767
9546.778672 60.802 22.2319
9615.958566 61.606 11.6035
9685.639765 61.744 -0.1699
9755.825904 61.504 -7.9297
9826.520640 61.343 -10.0542
9897.727659 61.524 -14.4858
9969.450674 61.457 -23.7832
10041.693423 60.766 -33.7432
10114.459673 59.969 -36.7070
10187.753217 59.453 -40.4189
10261.577877 58.697 -46.9253
10335.937500 57.477 -54.6221
10410.835964 56.898 -25.3032
10486.277173 57.800 17.0850
10562.265060 58.541 6.6133
10638.803587 58.565 8.2612
10715.896743 59.066 10.1021
10793.548548 59.655 -1.1650
10871.763050 59.429 -12.6904
10950.544327 59.247 -11.4683
11029.896485 59.651 -10.7446
11109.823662 59.557 -20.2349
11190.330024 58.822 -22.2808
11271.419768 58.653 -15.7900
11353.097122 58.939 -19.3555
11435.366344 58.754 -26.8828
11518.231722 58.363 -27.7769
11601.697577 58.091 -27.7964
11685.768261 57.603 -32.4731
11770.448155 57.020 -33.2319
11855.741674 56.783 -30.1133
11941.653265 56.694 -28.8184
12028.187408 56.384 -28.8423
12115.348612 56.215 -21.4614
12203.141422 56.554 -20.6582
12291.570415 56.465 -27.2949
12380.640201 55.993 -28.2476
12470.355424 55.745 -25.1030
12560.720760 55.588 -24.3496
12651.740920 55.920 -15.0605
12743.420650 56.913 -13.7930
12835.764729 57.295 -23.1265
12928.777972 57.028 -25.9780
13022.465227 56.816 -27.6191
13116.831378 56.456 -29.1572
13211.881345 56.538 -20.9062
13307.620084 57.357 -14.3491
13404.052584 58.139 -18.4946
13501.183875 58.704 -23.3472
13599.019019 59.182 -28.0952
13697.563116 59.305 -36.3228
13796.821305 59.052 -44.1782
13896.798760 58.663 -50.8926
13997.500692 58.014 -58.8906
14098.932352 56.961 -61.8223
14201.099028 56.050 -60.3994
14304.006046 55.321 -62.1406
14407.658770 54.837 -53.9878
14512.062604 54.987 -50.2817
14617.222992 55.308 -52.6865
14723.145416 55.624 -56.5059
14829.835397 55.696 -64.3130
14937.298497 55.287 -72.4556
15045.540320 54.578 -77.8843
15154.566507 53.737 -83.2734
15264.382743 52.725 -84.6782
15374.994752 51.777 -84.3511
15486.408302 50.745 -85.7598
15598.629201 49.967 -79.0591
15711.663298 49.627 -77.2817
15825.516487 49.319 -75.1968
15940.194703 49.192 -76.4502
16055.703925 48.899 -81.7129
16172.050174 48.651 -82.2012
16289.239516 48.170 -91.8589
16407.278061 46.922 -98.7427
16526.171961 45.822 -101.6499
16645.927415 45.698 -94.4526
16766.550667 46.247 0.4282
16888.048005 46.970 -3.9390
17010.425762 47.582 -14.4751
17133.690320 47.915 -25.5151
17257.848103 48.284 -27.1528
17382.905584 48.277 -34.2671
17508.869284 47.660 -36.0249
17635.745768 47.242 -33.9355
17763.541652 47.298 -25.2549
17892.263597 47.739 -19.5503
18021.918315 48.387 -17.7676
18152.512564 49.353 -19.1548
18284.053153 50.256 -23.9517
18416.546939 50.749 -31.7329
18550.000830 50.756 -40.5308
18684.421783 50.578 -48.6382
18819.816805 50.123 -59.2954
18956.192956 49.222 -69.3867
19093.557344 47.872 -79.6841
19231.917131 45.901 -87.0693
19371.279531 43.443 -83.2700
19511.651807 41.404 -66.0977
19653.041280 40.811 -53.5845
19795.455318 41.073 -52.6572
19938.901348 41.325 -58.8364
