* Measurement data measured by REW V5.31
* Source: Scarlett 2i4 USB, MICROPHONE, R, volume: no control. Timing signal peak level -31.2 dBFS, measurement signal peak level -22.8 dBFS
* Format: 512k Log Swept Sine, 1 sweep at -18.0 dBFS using an acoustic timing reference
* Dated: Apr 16, 2024 9:58:17 AM
* REW Settings:
*  C-weighting compensation: Off
*  Target level: 75.0 dB
* Note: ; Delay -0.9054 ms (-311 mm, -(1 ft 0.23 in)) using estimated IR delay relative to Acoustic reference played from SPEAKER L with no timing offset
* Measurement: curtains-p1-c
* Smoothing: 1/48 octave
* Frequency Step: 96 ppo
* Start Frequency: 10.093689 Hz
*
* Freq(Hz) SPL(dB) Phase(degrees)
10.093689 28.271 9.3314
10.166832 28.320 6.8957
10.240505 28.379 4.3423
10.314712 28.439 1.8001
10.389457 28.493 -0.6022
10.464743 28.513 -2.7834
10.540575 28.479 -4.9643
10.616956 28.408 -7.0876
10.693891 28.307 -9.0043
10.771383 28.177 -10.5366
10.849437 28.006 -11.7170
10.928057 27.802 -12.6171
11.007246 27.589 -13.1358
11.087009 27.395 -13.1434
11.167350 27.222 -12.4964
11.248273 27.056 -11.1767
11.329783 26.941 -9.3065
11.411883 26.932 -7.0798
11.494578 27.068 -4.6020
11.577873 27.338 -1.7199
11.661771 27.716 1.0939
11.746277 28.180 3.3628
11.831395 28.728 4.9015
11.917130 29.374 6.0632
12.003487 30.072 6.6699
12.090469 30.765 6.5761
12.178081 31.427 5.7877
12.266329 32.077 4.5669
12.355216 32.702 2.9959
12.444747 33.284 1.1053
12.534926 33.815 -1.1562
12.625760 34.301 -3.7027
12.717251 34.740 -6.3613
12.809406 35.131 -9.0397
12.902228 35.471 -11.9305
12.995723 35.763 -14.9352
13.089895 36.008 -17.8526
13.184750 36.207 -20.6342
13.280292 36.358 -23.5024
13.376526 36.466 -26.2907
13.473458 36.537 -28.7966
13.571093 36.568 -31.1238
13.669434 36.563 -33.3194
13.768489 36.538 -35.2460
13.868261 36.497 -36.7901
13.968756 36.440 -38.0295
14.069979 36.387 -38.9935
14.171936 36.359 -39.6702
14.274632 36.355 -39.9565
14.378072 36.382 -40.0069
14.482261 36.459 -40.0334
14.587206 36.592 -39.9479
14.692910 36.771 -39.8153
14.799381 36.984 -39.8885
14.906624 37.231 -40.2199
15.014643 37.503 -40.7178
15.123446 37.776 -41.4525
15.233036 38.034 -42.4930
15.343421 38.280 -43.7731
15.454606 38.498 -45.1562
15.566596 38.676 -46.6415
15.679398 38.816 -48.2753
15.793018 38.917 -49.8262
15.907460 38.975 -51.2207
16.022732 38.995 -52.5548
16.138840 38.989 -53.6288
16.255788 38.964 -54.3382
16.373585 38.925 -54.7566
16.492234 38.904 -54.8547
16.611744 38.911 -54.5431
16.732119 38.954 -53.9235
16.853367 39.055 -53.2204
16.975494 39.225 -52.3609
17.098505 39.449 -51.5300
17.222408 39.721 -50.9873
17.347209 40.038 -50.6424
17.472914 40.371 -50.5745
17.599530 40.700 -50.8632
17.727063 41.023 -51.4200
17.855521 41.319 -52.1216
17.984909 41.581 -53.0195
18.115235 41.809 -53.9764
18.246506 42.002 -54.8253
18.378727 42.161 -55.6446
18.511907 42.300 -56.2595
18.646052 42.422 -56.6205
18.781169 42.541 -56.7577
18.917265 42.677 -56.6138
19.054347 42.831 -56.1995
19.192423 43.021 -55.6178
19.331499 43.254 -54.8721
19.471583 43.530 -54.0473
19.612682 43.850 -53.2573
19.754804 44.214 -52.4905
19.897956 44.613 -51.8641
20.042144 45.046 -51.3536
20.187378 45.509 -51.0404
20.333664 45.997 -50.9176
20.481010 46.507 -51.0190
20.629424 47.032 -51.4183
20.778913 47.568 -52.0586
20.929486 48.103 -53.0608
21.081150 48.631 -54.3497
21.233912 49.136 -55.9460
21.387782 49.612 -57.8538
21.542767 50.045 -59.9389
21.698874 50.427 -62.2366
21.856113 50.754 -64.5807
22.014492 51.020 -66.8923
22.174018 51.229 -69.1119
22.334700 51.387 -71.0145
22.496546 51.506 -72.6434
22.659566 51.611 -73.7693
22.823766 51.717 -74.4631
22.989157 51.864 -74.7148
23.155745 52.064 -74.5881
23.323542 52.341 -74.3778
23.492554 52.690 -74.1161
23.662790 53.094 -74.1601
23.834261 53.537 -74.4550
24.006973 53.982 -75.1125
24.180938 54.417 -76.0212
24.356163 54.823 -77.0198
24.532658 55.205 -78.0270
24.710431 55.575 -78.7844
24.889493 55.962 -79.3324
25.069853 56.402 -79.5367
25.251519 56.923 -79.7048
25.434502 57.548 -79.8873
25.618811 58.265 -80.6341
25.804456 59.059 -81.9482
25.991445 59.877 -84.2510
26.179790 60.687 -87.3586
26.369500 61.441 -91.3810
26.560584 62.116 -96.0691
26.753053 62.686 -101.3759
26.946917 63.139 -106.9961
27.142185 63.464 -112.9683
27.338869 63.658 -118.8351
27.536977 63.719 -124.7233
27.736522 63.653 -130.1220
27.937512 63.472 -135.0600
28.139959 63.195 -139.1636
28.343872 62.869 -142.3058
28.549264 62.538 -144.2915
28.756143 62.287 -145.2052
28.964522 62.171 -145.3274
29.174411 62.238 -145.0547
29.385821 62.468 -145.2007
29.598763 62.818 -145.9814
29.813248 63.208 -147.7797
30.029287 63.574 -150.3969
30.246891 63.872 -153.7561
30.466073 64.067 -157.5173
30.686842 64.148 -161.3952
30.909212 64.114 -165.2272
31.133193 63.978 -168.5740
31.358797 63.766 -171.2878
31.586035 63.515 -173.1255
31.814921 63.291 -173.9444
32.045465 63.160 -173.9077
32.277680 63.175 -173.2181
32.511577 63.370 -172.5245
32.747169 63.713 -172.3698
32.984469 64.155 -173.0388
33.223488 64.622 -174.7379
33.464239 65.052 -177.3047
33.706735 65.408 179.5032
33.950987 65.668 175.8960
34.197010 65.829 172.2527
34.444816 65.909 168.8103
34.694417 65.935 165.7144
34.945827 65.945 163.1034
35.199059 65.987 160.8865
35.454126 66.086 158.8128
35.711041 66.248 156.6266
35.969818 66.453 154.0392
36.230470 66.658 150.8589
36.493011 66.818 147.1472
36.757455 66.901 143.0417
37.023814 66.885 138.7299
37.292104 66.763 134.4933
37.562338 66.548 130.6127
37.834530 66.269 127.2394
38.108695 65.957 124.4562
38.384846 65.650 122.2506
38.662999 65.375 120.4749
38.943167 65.141 118.8924
39.225365 64.938 117.3363
39.509608 64.747 115.7286
39.795911 64.548 114.0729
40.084289 64.329 112.4397
40.374756 64.081 110.9366
40.667328 63.804 109.6861
40.962020 63.505 108.8258
41.258848 63.198 108.5172
41.557827 62.918 108.9158
41.858972 62.715 110.0764
42.162299 62.652 111.8177
42.467824 62.772 113.6508
42.775564 63.069 114.9160
43.085533 63.481 115.0885
43.397749 63.918 113.9990
43.712227 64.307 111.8168
44.028983 64.601 108.8895
44.348036 64.787 105.5841
44.669400 64.873 102.1975
44.993093 64.879 98.9156
45.319131 64.827 95.8096
45.647532 64.732 92.8674
45.978313 64.601 90.0515
46.311491 64.431 87.3539
46.647083 64.221 84.8214
46.985107 63.973 82.5392
47.325581 63.699 80.5872
47.668521 63.415 78.9951
48.013947 63.140 77.7255
48.361876 62.882 76.6936
48.712326 62.647 75.8105
49.065315 62.433 75.0132
49.420863 62.238 74.2625
49.778987 62.061 73.5174
50.139706 61.899 72.7185
50.503039 61.743 71.8024
50.869005 61.578 70.7390
51.237623 61.388 69.5661
51.608912 61.159 68.3952
51.982891 60.889 67.3799
52.359580 60.586 66.6630
52.739000 60.266 66.3250
53.121168 59.948 66.3679
53.506106 59.642 66.7470
53.893833 59.355 67.4351
54.284370 59.092 68.4545
54.677737 58.868 69.8421
55.073955 58.702 71.5494
55.473043 58.609 73.3741
55.875024 58.577 75.0428
56.279917 58.569 76.4196
56.687745 58.544 77.6686
57.098527 58.493 79.2606
57.512287 58.463 81.7486
57.929045 58.559 85.3698
58.348822 58.886 89.7207
58.771642 59.487 93.8505
59.197525 60.317 96.8829
59.626495 61.297 98.4284
60.058573 62.359 98.4048
60.493782 63.444 96.7239
60.932145 64.487 93.3041
61.373685 65.418 88.2362
61.818424 66.176 81.8135
62.266386 66.721 74.5305
62.717593 67.044 66.9057
63.172071 67.168 59.4582
63.629842 67.143 52.5950
64.090930 67.032 46.4576
64.555359 66.898 40.9408
65.023154 66.782 35.7244
65.494339 66.689 30.4576
65.968938 66.600 24.8860
66.446976 66.488 18.9328
66.928478 66.336 12.6418
67.413469 66.142 6.0653
67.901975 65.911 -0.8334
68.394021 65.649 -8.1716
68.889632 65.354 -16.0837
69.388835 65.026 -24.6311
69.891655 64.688 -33.9122
70.398118 64.388 -44.2574
70.908252 64.166 -56.3296
71.422083 64.017 -70.8987
71.939636 63.889 -88.3945
72.460941 63.725 -108.4956
72.986023 63.506 -130.3292
73.514909 63.261 -152.2868
74.047629 63.067 -172.7870
74.584208 63.016 169.3801
75.124676 63.186 154.5248
75.669061 63.605 142.1931
76.217390 64.240 131.4993
76.769692 65.021 121.5270
77.325997 65.854 111.5214
77.886333 66.633 101.0552
78.450730 67.273 90.1716
79.019216 67.729 79.2045
79.591822 68.004 68.6475
80.168577 68.139 58.8427
80.749512 68.193 49.9387
81.334656 68.228 41.8624
81.924040 68.289 34.3014
82.517696 68.386 26.8274
83.115653 68.489 19.1033
83.717943 68.552 11.0932
84.324598 68.547 3.0533
84.935649 68.481 -4.7409
85.551128 68.378 -12.1758
86.171066 68.259 -19.2477
86.795497 68.145 -25.8958
87.424453 68.076 -32.0620
88.057967 68.095 -38.0456
88.696071 68.193 -44.5690
89.338800 68.272 -52.1790
89.986185 68.203 -60.6132
90.638262 67.918 -68.8064
91.295065 67.472 -75.3992
91.956626 67.057 -79.5211
92.622982 66.925 -81.6149
93.294166 67.220 -83.4977
93.970214 67.856 -87.2411
94.651161 68.588 -93.9030
95.337042 69.173 -103.1561
96.027894 69.475 -113.8064
96.723752 69.470 -124.5632
97.424652 69.205 -134.5652
98.130631 68.741 -143.4160
98.841726 68.130 -150.7776
99.557974 67.451 -156.1541
100.279412 66.840 -159.3855
101.006078 66.431 -161.1868
101.738010 66.268 -162.7246
102.475245 66.291 -164.8811
103.217823 66.388 -168.0703
103.965782 66.440 -172.0527
104.719161 66.399 -175.9375
105.477999 66.324 -178.8000
106.242336 66.346 179.6155
107.012212 66.580 178.6383
107.787666 67.034 176.9182
108.568740 67.576 173.3032
109.355474 68.031 167.8678
110.147909 68.316 161.6931
110.946086 68.462 155.7495
111.750047 68.537 150.0437
112.559834 68.549 143.9402
113.375489 68.439 137.1868
114.197055 68.143 130.0425
115.024574 67.609 122.7961
115.858089 66.783 116.0452
116.697645 65.652 111.1777
117.543284 64.326 109.8728
118.395051 63.058 112.6904
119.252990 62.128 118.2297
120.117147 61.629 123.7423
120.987565 61.378 127.4464
121.864291 61.182 131.0497
122.747370 61.201 138.0095
123.636848 61.841 147.9456
124.532771 63.140 155.4071
125.435187 64.700 157.2759
126.344142 66.139 153.8762
127.259684 67.234 146.6304
128.181860 67.902 137.2239
129.110718 68.136 126.7241
130.046308 67.897 115.3154
130.988677 67.068 103.5776
131.937875 65.534 93.3533
132.893951 63.348 87.9323
133.856956 61.464 100.1947
134.826938 62.514 170.3608
135.803950 65.687 -173.2847
136.788041 68.492 177.1436
137.779264 70.320 161.0546
138.777669 71.187 143.7600
139.783309 71.278 128.3049
140.796237 70.833 116.0784
141.816504 70.065 107.0197
142.844165 69.104 100.6841
143.879273 68.032 96.9768
144.921881 66.941 96.2656
145.972045 66.018 99.2126
147.029819 65.563 105.3025
148.095257 65.782 111.8057
149.168417 66.558 115.6445
150.249353 67.535 114.9390
151.338121 68.383 110.1433
152.434780 68.953 103.0540
153.539385 69.228 94.8256
154.651995 69.213 85.7461
155.772667 68.893 75.9221
156.901460 68.252 65.8079
158.038432 67.333 55.7354
159.183644 66.228 44.7979
160.337154 65.045 30.5446
161.499023 63.970 8.7609
162.669312 63.444 -26.8763
163.848081 63.977 -75.3324
165.035392 65.322 -116.0336
166.231306 66.777 -143.4641
167.435887 68.026 -162.2592
168.649196 69.093 -175.5026
169.871298 69.994 173.7152
171.102255 70.618 163.3623
172.342133 70.899 154.2288
173.590995 70.951 147.9583
174.848907 70.988 144.5380
176.115934 71.198 143.3033
177.392143 71.744 143.8000
178.677599 72.633 143.4628
179.972371 73.624 139.8916
181.276525 74.470 133.5962
182.590129 75.079 126.1261
183.913252 75.468 118.3988
185.245964 75.662 110.5040
186.588332 75.644 102.2454
187.940428 75.342 93.6421
189.302322 74.671 85.4325
190.674085 73.602 79.6615
192.055788 72.339 79.9908
193.447503 71.458 88.0146
194.849303 71.442 96.4198
196.261262 72.061 100.2312
197.683452 72.936 101.3290
199.115948 73.923 100.6731
200.558824 74.920 97.5435
202.012156 75.745 91.1246
203.476019 76.209 82.0742
204.950490 76.207 72.1766
206.435646 75.749 63.5092
207.931564 74.986 58.0762
209.438322 74.225 56.8070
210.955998 73.771 57.5465
212.484672 73.598 56.1102
214.024424 73.368 51.8826
215.575333 72.874 48.1069
217.137481 72.266 48.0614
218.710948 71.968 52.2373
220.295818 72.295 57.1219
221.892172 73.033 57.3424
223.500094 73.689 52.1311
225.119668 73.991 44.6989
226.750978 73.954 37.6072
228.394109 73.692 31.3556
230.049147 73.291 25.8107
231.716178 72.797 20.6212
233.395289 72.180 15.0770
235.086567 71.345 9.3420
236.790102 70.238 5.2628
238.505980 68.997 5.1097
240.234293 67.980 8.8374
241.975130 67.615 15.2307
243.728581 67.964 18.4216
245.494739 68.361 11.8682
247.273695 68.089 -0.7766
249.065542 66.883 -13.4457
250.870374 64.752 -22.2887
252.688284 61.823 -23.4272
254.519367 58.645 -4.7345
256.363720 57.382 57.7246
258.221437 59.622 85.0239
260.092616 63.332 105.3478
261.977354 66.977 113.2303
263.875750 69.930 103.9215
265.787903 72.032 87.8741
267.713911 73.222 68.4775
269.653877 73.429 48.1414
271.607900 72.683 31.0510
273.576083 71.320 22.7416
275.558528 70.190 25.3961
277.555338 70.140 30.1664
279.566619 70.882 27.3525
281.592474 71.688 18.6625
283.633009 72.221 6.2820
285.688331 72.214 -10.7448
287.758546 71.343 -30.4156
289.843763 69.474 -47.9281
291.944090 66.718 -60.4982
294.059638 63.561 -57.0520
296.190515 61.967 22.8765
298.336833 63.181 31.7883
300.498705 64.991 22.8802
302.676243 66.296 10.9830
304.869559 66.870 -3.2566
307.078770 66.878 -14.7858
309.303989 66.791 -22.8390
311.545334 66.821 -31.9177
313.802919 66.850 -43.0756
316.076865 66.692 -56.9163
318.367288 66.084 -73.8347
320.674309 64.802 -91.2451
322.998047 63.097 -98.3661
325.338624 62.551 -68.6299
327.696162 63.904 -62.9297
330.070783 65.272 -81.4231
332.462612 65.705 -103.7109
334.871773 65.342 -121.2063
337.298392 64.823 -131.7047
339.742595 64.588 -140.6583
342.204510 64.586 -149.4672
344.684265 64.810 -156.4426
347.181989 65.396 -161.7982
349.697813 66.280 -168.8043
352.231868 67.046 179.1979
354.784285 67.282 163.9429
357.355198 66.889 150.1260
359.944741 66.200 142.1704
362.553049 65.914 140.7170
365.180258 66.401 138.3760
367.826505 67.033 126.8728
370.491927 67.094 109.6743
373.176665 66.409 91.8430
375.880856 65.061 74.3428
378.604644 63.094 55.6268
381.348169 60.403 34.6124
384.111575 57.185 10.8715
386.895006 55.620 -62.4413
389.698607 57.643 -114.5354
392.522524 60.742 -134.1758
395.366904 63.653 -146.9507
398.231895 66.139 -160.2610
401.117648 68.059 -176.1079
404.024312 69.147 163.7671
406.952038 69.138 142.2002
409.900981 68.129 126.5356
412.871292 66.739 121.2217
415.863128 65.944 123.6414
418.876643 66.277 124.2788
421.911996 67.241 117.7983
424.969344 68.022 102.4788
428.048847 67.879 78.9351
431.150666 66.529 56.7209
434.274961 64.769 41.0513
437.421897 63.908 10.1995
440.591636 63.876 -42.6501
443.784345 64.646 -88.0164
447.000189 66.538 -113.0703
450.239337 68.595 -134.5276
453.501956 70.191 -154.6248
456.788219 71.507 -170.5161
460.098294 72.718 175.3147
463.432356 73.616 158.8943
466.790578 73.939 141.2617
470.173135 73.852 127.3533
473.580203 73.827 116.6323
477.011961 73.993 104.2305
480.468586 74.079 88.1711
483.950259 73.777 68.6660
487.457163 72.919 46.4722
490.989478 71.465 20.5208
494.547390 69.515 -13.5935
498.131084 67.856 -116.0461
501.740748 67.937 141.1274
505.376568 69.133 107.7512
509.038735 69.955 79.7771
512.727439 69.929 54.7458
516.442874 69.325 37.0750
520.185232 69.095 28.8252
523.954708 69.685 17.0552
527.751500 70.453 -1.0212
531.575805 71.096 -20.1487
535.427822 71.514 -41.1282
539.307753 71.351 -63.7244
543.215800 70.699 -79.3599
547.152165 70.402 -88.3359
551.117055 70.643 -101.3945
555.110677 70.804 -118.8074
559.133237 70.430 -139.2351
563.184947 69.215 -159.6821
567.266018 67.604 -147.8694
571.376661 67.482 -104.1819
575.517092 68.694 -112.3894
579.687526 69.576 -127.5051
583.888181 69.909 -138.5271
588.119275 70.190 -143.9673
592.381030 70.425 -153.1060
596.673667 70.126 -164.6221
600.997410 69.405 -169.3416
605.352485 69.109 -166.0903
609.739119 69.655 -164.9512
614.157540 70.315 -173.1436
618.607979 70.249 172.4385
623.090667 69.110 160.0081
627.605839 67.403 163.8721
632.153730 67.074 -174.9690
636.734576 69.020 -156.7725
641.348617 71.325 -161.2793
645.996094 72.883 -177.2678
650.677248 73.676 164.6133
655.392323 73.820 145.5137
660.141566 73.240 125.2754
664.925224 71.892 108.0242
669.743546 70.276 99.8289
674.596784 69.311 91.6753
679.485191 68.982 74.8875
684.409020 68.936 53.1172
689.368530 68.743 22.6777
694.363979 67.840 -11.4973
699.395626 66.187 -39.9365
704.463736 64.485 -52.2878
709.568570 64.641 -52.1777
714.710396 67.204 -41.7383
719.889483 70.045 -47.6479
725.106099 71.792 -69.7178
730.360516 72.424 -92.1648
735.653010 72.327 -109.7002
740.983855 72.034 -120.8062
746.353329 72.005 -128.7727
751.761713 72.130 -139.7561
757.209288 71.745 -155.6785
762.696339 70.520 -170.2051
768.223151 68.601 -179.4644
773.790013 66.576 -177.5581
779.397214 65.576 -164.9646
785.045047 65.799 -146.2798
790.733808 66.467 -136.6484
796.463791 66.421 -155.6677
802.235296 65.550 -178.4329
808.048623 65.528 -98.8801
813.904077 67.513 -55.7539
819.801961 69.623 -77.8982
825.742584 70.729 -99.1855
831.726255 70.967 -114.4514
837.753287 70.952 -123.9158
843.823992 70.831 -133.9939
849.938689 70.529 -142.6055
856.097695 70.072 -153.4375
862.301332 69.041 -165.7791
868.549922 68.209 -123.1836
874.843793 69.195 -99.8625
881.183272 70.600 -112.8970
887.568689 71.324 -126.5349
894.000378 71.713 -135.4099
900.478673 71.729 -148.7036
907.003913 70.897 -163.1484
913.576437 69.556 -164.4536
920.196588 69.121 -154.8110
926.864712 69.177 -165.5176
933.581156 68.210 179.3721
940.346270 66.752 -167.6899
947.160407 65.936 -163.8069
954.023921 64.973 179.1829
960.937172 63.841 157.7620
967.900519 63.426 -39.4932
974.914325 63.628 -75.3726
981.978956 63.242 -95.7710
989.094780 62.540 -92.8152
996.262169 63.085 -78.5273
1003.481495 64.663 -74.3765
1010.753136 66.442 -74.3635
1018.077470 68.254 -76.0730
1025.454879 69.815 -83.2944
1032.885748 70.845 -94.4963
1040.370463 71.550 -103.2659
1047.909417 72.067 -114.7622
1055.503000 71.714 -132.7832
1063.151610 70.415 -145.0684
1070.855645 69.071 -151.7019
1078.615506 68.056 -169.4648
1086.431599 67.130 -174.7617
1094.304330 66.784 -65.5938
1102.234110 67.021 -82.0603
1110.221353 67.623 -90.3936
1118.266475 68.112 -101.4038
1126.369895 68.248 -111.9319
1134.532035 68.615 -113.7952
1142.753322 69.641 -112.3799
1151.034184 70.182 -130.5427
1159.375052 69.455 -150.4470
1167.776361 68.260 -162.6052
1176.238550 67.209 170.8918
1184.762060 65.519 121.5283
1193.347334 63.384 6.3704
1201.994821 61.873 -52.7229
1210.704971 61.277 -78.0410
1219.478238 61.605 -93.8455
1228.315080 62.806 -29.0679
1237.215957 64.279 -26.3467
1246.181334 65.213 -47.9175
1255.211678 65.214 -66.8828
1264.307459 64.421 -77.4128
1273.469152 63.230 -85.3518
1282.697235 61.923 -84.6511
1291.992188 61.588 -73.4072
1301.354495 62.276 -72.1672
1310.784647 62.912 -79.0430
1320.283132 63.067 -86.5933
1329.850448 62.561 -96.5410
1339.487093 61.752 -102.5066
1349.193569 62.229 -115.1636
1358.970381 63.286 -169.3740
1368.818041 64.198 57.7551
1378.737061 65.306 3.0513
1388.727958 65.664 -37.9595
1398.791253 64.829 -75.5918
1408.927471 63.024 -113.1084
1419.137140 61.118 -162.9663
1429.420793 60.932 118.6396
1439.778965 62.029 63.3140
1450.212197 62.033 26.9497
1460.721033 61.275 24.3135
1471.306019 61.992 43.8701
1481.967709 63.284 31.2759
1492.706658 63.920 13.0083
1503.523426 63.775 -6.7759
1514.418576 62.849 -24.0522
1525.392678 61.799 -39.1870
1536.446302 60.826 -58.2847
1547.580025 60.424 69.7173
1558.794428 61.869 57.5649
1570.090095 63.804 31.1309
1581.467615 65.206 2.1821
1592.927581 66.182 -31.0127
1604.470591 66.548 -74.4673
1616.097246 66.092 -126.0703
1627.808153 65.186 -171.4570
1639.603922 65.233 156.0361
1651.485168 65.993 124.5708
1663.452510 65.983 93.1958
1675.506573 64.783 67.5391
1687.647984 62.936 52.1772
1699.877377 62.391 56.0747
1712.195390 64.025 91.8862
1724.602663 65.152 69.6963
1737.099845 64.240 34.2905
1749.687587 62.334 2.9131
1762.366544 61.401 154.7886
1775.137379 61.259 110.7500
1788.000756 61.245 141.6958
1800.957346 61.656 156.1929
1814.007826 63.296 162.4800
1827.152874 65.815 -135.7275
1840.393177 67.354 -166.2407
1853.729425 67.124 159.7241
1867.162312 65.982 136.4468
1880.692540 65.415 140.1079
1894.320813 65.748 160.3789
1908.047843 66.298 159.2168
1921.874344 66.636 149.3711
1935.801038 66.359 140.3652
1949.828650 65.788 125.1211
1963.957912 64.718 99.7324
1978.189561 64.139 47.9141
1992.524338 64.916 -60.2031
2006.962991 67.202 -88.3281
2021.506272 69.571 -107.0903
2036.154940 71.081 -128.0688
2050.909758 71.241 -154.5356
2065.771495 70.195 -178.0361
2080.740927 68.483 169.6465
2095.818833 68.379 -153.7329
2111.006001 70.416 -110.6094
2126.303220 72.317 -130.0981
2141.711290 73.316 -158.3091
2157.231013 73.235 169.2202
2172.863198 72.686 131.4072
2188.608660 72.904 66.0664
2204.468221 73.367 -32.4805
2220.442706 72.656 -80.1069
2236.532950 71.542 -98.4229
2252.739789 71.325 -96.4087
2269.064070 71.875 -95.6675
2285.506644 72.358 -108.7017
2302.068367 72.610 -123.1274
2318.750104 72.112 -140.0220
2335.552723 70.739 -153.0874
2352.477101 69.302 -149.7021
2369.524119 68.827 -128.0845
2386.694668 68.962 -106.3130
2403.989641 69.085 -89.5869
2421.409941 68.989 -82.6035
2438.956476 69.177 -68.8618
2456.630160 69.812 -59.0791
2474.431915 70.738 -64.2861
2492.362668 71.406 -75.0884
2510.423356 71.372 -87.3433
2528.614918 70.530 -96.2734
2546.938304 69.609 -81.6406
2565.394469 69.964 -73.1411
2583.984375 70.255 -86.5098
2602.708991 69.641 -97.7075
2621.569293 68.926 -98.8159
2640.566265 68.557 -16.3589
2659.700897 68.688 -14.8901
2678.974186 69.322 -16.1069
2698.387137 69.699 -22.3862
2717.940763 69.348 -26.7324
2737.636082 69.376 -19.7261
2757.474121 70.216 -19.7061
2777.455915 70.792 -30.7812
2797.582506 70.246 -48.0181
2817.854942 68.326 -60.0015
2838.274281 65.853 -35.8716
2858.841586 65.382 34.4463
2879.557931 67.100 42.7095
2900.424394 68.652 38.1963
2921.442065 69.720 34.8027
2942.612039 70.622 32.0923
2963.935418 70.958 18.7417
2985.413316 70.090 1.5098
3007.046852 68.744 -0.7905
3028.837153 68.993 56.3228
3050.785356 70.253 77.8223
3072.892604 70.682 72.9834
3095.160050 70.268 72.1279
3117.588856 70.200 85.6128
3140.180190 70.514 88.8496
3162.935230 70.328 83.4932
3185.855163 69.307 87.4756
3208.941182 68.469 109.5186
3232.194493 68.943 116.9565
3255.616307 69.131 108.7583
3279.207844 68.457 121.6802
3302.970336 68.743 153.5034
3326.905021 69.990 157.8032
3351.013146 70.685 149.6372
3375.295969 70.315 137.5640
3399.754755 68.994 136.7031
3424.390779 68.350 168.9248
3449.205326 68.665 175.6001
3474.199690 68.722 -176.6440
3499.375173 69.510 -158.7217
3524.733088 70.714 -154.0391
3550.274757 71.193 -158.5493
3576.001511 70.982 -163.7959
3601.914692 70.239 -170.4917
3628.015651 68.936 -165.0488
3654.305748 68.385 -123.8071
3680.786354 69.640 -103.0493
3707.458849 70.927 -108.9429
3734.324624 70.741 -117.1704
3761.385080 70.083 -106.6885
3788.641627 70.335 -96.2979
3816.095686 70.409 -97.8916
3843.748688 69.946 -89.2407
3871.602076 69.676 -75.1846
3899.657300 69.476 -64.0386
3927.915825 69.540 -55.0659
3956.379122 70.189 -49.3721
3985.048676 70.653 -51.4326
4013.925981 70.389 -54.0732
4043.012544 69.918 -36.3979
4072.309879 69.960 -22.5063
4101.819515 69.571 -25.0151
4131.542990 68.739 -16.4307
4161.481854 68.689 -2.3350
4191.637667 69.222 3.3584
4222.012001 69.090 1.6890
4252.606441 67.820 3.2759
4283.422580 66.481 24.7104
4314.462026 66.806 54.0703
4345.726396 67.981 62.0254
4377.217321 68.435 61.8735
4408.936442 68.352 71.0718
4440.885413 68.237 75.4209
4473.065899 67.666 81.6201
4505.479579 67.501 103.5430
4538.128141 68.071 115.2598
4571.013288 68.469 116.7275
4604.136735 68.338 119.3428
4637.500207 68.194 124.4082
4671.105446 67.908 131.5244
4704.954201 67.498 152.7285
4739.048239 67.359 166.4536
4773.389336 67.684 173.7559
4807.979283 67.789 174.6978
4842.819883 67.069 -179.2153
4877.912952 66.078 -161.8413
4913.260320 65.644 -145.4678
4948.863830 66.134 -131.3691
4984.725337 66.806 -124.1479
5020.846712 67.003 -121.2241
5057.229836 66.544 -121.0337
5093.876609 65.574 -111.2041
5130.788938 64.642 -88.9834
5167.968750 64.220 -73.9336
5205.417982 64.474 -61.0166
5243.138586 65.024 -57.4712
5281.132530 65.035 -58.1860
5319.401793 64.229 -53.2266
5357.948371 63.845 18.6602
5396.774274 64.091 29.2007
5435.881525 64.014 32.7949
5475.272163 63.760 38.6201
5514.948243 63.635 51.5996
5554.911831 63.949 75.9062
5595.165012 64.662 88.6050
5635.709884 65.374 88.8037
5676.548561 65.404 84.0889
5717.683172 64.931 95.3047
5759.115861 64.506 125.8950
5800.848789 64.138 140.8320
5842.884130 64.624 162.4351
5885.224077 65.614 175.0913
5927.870837 66.002 -137.1006
5970.826633 66.271 -100.1270
6014.093704 66.550 -106.0200
6057.674306 66.335 -112.5957
6101.570711 66.032 -111.0308
6145.785208 66.272 -98.4956
6190.320101 66.856 -64.3789
6235.177712 67.484 -44.6304
6280.360380 67.470 -51.9683
6325.870460 66.410 -46.4595
6371.710325 66.107 18.5166
6417.882365 67.331 34.3086
6464.388986 68.153 32.7227
6511.232613 68.112 33.4707
6558.415689 68.129 55.6377
6605.940673 69.105 74.8777
6653.810042 69.615 75.7034
6702.026292 69.082 80.0222
6750.591937 68.512 102.2200
6799.509509 68.974 124.0308
6848.781558 69.665 133.0862
6898.410653 69.694 137.1614
6948.399380 69.300 152.3389
6998.750346 69.604 177.4719
7049.466176 70.188 -171.2139
7100.549514 70.291 -163.8135
7152.003023 70.132 -151.8696
7203.829385 70.232 -136.7537
7256.031302 70.440 -125.7458
7308.611496 70.050 -118.1230
7361.572708 69.150 -103.2205
7414.917698 68.718 -82.6858
7468.649249 68.804 -66.7644
7522.770160 68.669 -51.7341
7577.283253 68.706 -30.4624
7632.191371 69.073 -12.9583
7687.497376 69.394 0.8174
7743.204151 69.418 11.5835
7799.314600 68.915 24.3030
7855.831649 68.317 40.0996
7912.758244 67.816 54.6760
7970.097352 67.217 72.4556
8027.851962 66.749 90.5471
8086.025087 66.690 112.6206
8144.619758 66.621 133.5332
8203.639030 66.391 157.2180
8263.085980 66.117 174.7222
8322.963708 65.730 -169.1267
8383.275334 65.098 -153.5073
8444.024002 64.391 -135.8420
8505.212881 63.836 -112.3328
8566.845160 63.519 -88.4385
8628.924051 63.383 -57.7700
8691.452792 63.458 -23.7732
8754.434642 63.679 -3.5752
8817.872884 64.237 17.6553
8881.770826 64.720 35.4260
8946.131799 64.723 51.8989
9010.959157 64.420 78.7871
9076.256282 64.718 115.5393
9142.026576 65.384 135.1089
9208.273470 65.780 154.8481
9275.000415 66.310 176.8093
9342.210891 66.649 -169.7046
9409.908403 66.502 -155.8445
9478.096478 66.344 -136.9521
9546.778672 66.211 -119.7441
9615.958566 65.533 -99.4448
9685.639765 65.037 -61.7451
9755.825904 65.617 -31.5132
9826.520640 66.471 -7.6333
9897.727659 67.284 17.0334
9969.450674 67.790 32.0955
10041.693423 67.536 47.7639
10114.459673 67.065 71.6306
10187.753217 66.888 94.3179
10261.577877 67.109 121.0806
10335.937500 67.893 150.5898
10410.835964 68.495 167.9077
10486.277173 68.586 -173.6357
10562.265060 68.682 -151.8401
10638.803587 68.670 -132.7073
10715.896743 68.422 -109.4490
10793.548548 68.439 -82.3984
10871.763050 68.598 -60.7222
10950.544327 68.883 -35.9272
11029.896485 69.239 -17.7258
11109.823662 68.841 -2.7532
11190.330024 67.973 24.0916
11271.419768 67.168 49.5530
11353.097122 66.622 82.1252
11435.366344 66.940 118.5562
11518.231722 67.459 141.5461
11601.697577 67.950 165.2656
11685.768261 68.117 -177.6631
11770.448155 67.413 -155.8418
11855.741674 66.665 -123.8704
11941.653265 66.388 -92.9795
12028.187408 66.799 -56.5796
12115.348612 67.315 -34.1943
12203.141422 67.229 -14.7646
12291.570415 66.776 7.2954
12380.640201 65.705 30.0151
12470.355424 64.631 67.8750
12560.720760 64.384 102.8015
12651.740920 64.665 140.3335
12743.420650 65.087 166.2866
12835.764729 64.813 -166.0327
12928.777972 64.472 -127.2358
13022.465227 64.730 -90.0918
13116.831378 65.408 -56.8711
13211.881345 65.589 -33.1708
13307.620084 65.383 -6.2050
13404.052584 65.113 21.5258
13501.183875 64.986 62.6436
13599.019019 65.667 101.0840
13697.563116 66.658 130.8846
13796.821305 67.110 153.6913
13896.798760 66.867 179.1459
13997.500692 66.548 -151.3689
14098.932352 66.464 -118.0863
14201.099028 66.749 -86.5642
14304.006046 66.869 -60.1299
14407.658770 66.494 -34.2495
14512.062604 65.683 -5.3849
14617.222992 64.817 28.9663
14723.145416 64.350 66.8802
14829.835397 64.280 101.7454
14937.298497 64.157 133.9230
15045.540320 64.029 169.0968
15154.566507 64.137 -155.4216
15264.382743 64.396 -122.4995
15374.994752 64.420 -94.0374
15486.408302 63.933 -66.1302
15598.629201 62.982 -34.5828
15711.663298 61.922 2.5553
15825.516487 61.188 43.0701
15940.194703 60.801 81.3141
16055.703925 60.360 117.7448
16172.050174 59.847 156.4027
16289.239516 59.537 -162.7751
16407.278061 59.528 -122.3701
16526.171961 59.620 -83.6430
16645.927415 59.639 -45.4862
16766.550667 59.536 -8.4729
16888.048005 59.300 29.9503
17010.425762 59.054 71.3069
17133.690320 59.100 114.3090
17257.848103 59.381 154.8938
17382.905584 59.580 -167.1302
17508.869284 59.645 -127.8004
17635.745768 59.837 -86.9812
17763.541652 60.133 -48.3514
17892.263597 60.194 -12.7340
18021.918315 60.004 24.1659
18152.512564 59.791 63.4031
18284.053153 59.514 99.0942
18416.546939 58.802 133.1856
18550.000830 57.544 171.6446
18684.421783 56.244 -142.4160
18819.816805 55.354 -96.2791
18956.192956 54.503 -55.8135
19093.557344 53.402 -13.5559
19231.917131 52.387 34.1238
19371.279531 51.607 76.9480
19511.651807 50.432 115.7316
19653.041280 48.607 161.4772
19795.455318 46.804 -144.4976
19938.901348 45.717 -96.7433
